File: test-data-xrd/xrd-map-34-ID-E/Data_0065.chi
F:\20151113_APS_34IDE\\Brian\Particle1\OCV\Data_0065.tif
2-Theta Angle (Degrees)
Intensity
       2000
 0.07475  0.0000000E+00
 0.15525  0.0000000E+00
 0.23575  0.0000000E+00
 0.31625  0.0000000E+00
 0.39675  0.0000000E+00
 0.47725  0.0000000E+00
 0.55775  0.0000000E+00
 0.63825  0.0000000E+00
 0.71875  0.0000000E+00
 0.79925  0.0000000E+00
 0.87975  0.0000000E+00
 0.96025  0.0000000E+00
 1.04075  0.0000000E+00
 1.12125  0.0000000E+00
 1.20175  0.0000000E+00
 1.28225  0.0000000E+00
 1.36275  0.0000000E+00
 1.44325  0.0000000E+00
 1.52375  0.0000000E+00
 1.60425  0.0000000E+00
 1.68475  0.0000000E+00
 1.76525  0.0000000E+00
 1.84575  0.0000000E+00
 1.92625  0.0000000E+00
 2.00675  0.0000000E+00
 2.08725  0.0000000E+00
 2.16775  0.0000000E+00
 2.24825  0.0000000E+00
 2.32875  0.0000000E+00
 2.40925  0.0000000E+00
 2.48975  0.0000000E+00
 2.57025  0.0000000E+00
 2.65075  0.0000000E+00
 2.73125  0.0000000E+00
 2.81175  0.0000000E+00
 2.89225  35.8925
 2.97275  35.8735
 3.05325  34.8435
 3.13375  34.8396
 3.21425  35.6067
 3.29475  34.7254
 3.37525  34.0938
 3.45575  33.8548
 3.53625  33.9206
 3.61675  33.4503
 3.69725  32.7937
 3.77775  32.9657
 3.85825  32.5308
 3.93875  32.5225
 4.01925  32.8262
 4.09975  32.4088
 4.18025  31.7345
 4.26075  31.9444
 4.34125  32.0631
 4.42175  31.6943
 4.50225  31.949
 4.58275  32.5033
 4.66325  32.4142
 4.74375  32.4088
 4.82425  32.2339
 4.90475  32.5107
 4.98525  32.4272
 5.06575  33.3011
 5.14625  33.4794
 5.22675  33.2979
 5.30725  33.9843
 5.38775  34.4798
 5.46825  34.3411
 5.54875  34.5997
 5.62925  34.8088
 5.70975  34.8711
 5.79025  35.3901
 5.87075  35.4558
 5.95125  37.5928
 6.03175  37.2325
 6.11225  36.347
 6.19275  36.4476
 6.27325  37.1757
 6.35375  37.5972
 6.43425  37.8978
 6.51475  38.5424
 6.59525  39.0282
 6.67575  39.5918
 6.75625  40.1697
 6.83675  40.7898
 6.91725  41.4149
 6.99775  41.7283
 7.07825  41.8252
 7.15875  42.2702
 7.23925  42.8954
 7.31975  43.2243
 7.40025  43.3539
 7.48075  43.4488
 7.56125  43.5397
 7.64175  43.8426
 7.72225  43.431
 7.80275  43.7943
 7.88325  43.2748
 7.96375  43.0976
 8.04425  42.8432
 8.12475  41.8953
 8.20525  41.3132
 8.28575  40.3684
 8.36625  39.405
 8.44675  38.3787
 8.52725  37.0275
 8.60775  35.8226
 8.68825  34.5839
 8.76875  33.3236
 8.84925  32.098
 8.92975  31.1147
 9.01025  30.0555
 9.09075  29.4742
 9.17125  28.6031
 9.25175  27.9449
 9.33225  27.1717
 9.41275  26.5178
 9.49325  26.1394
 9.57375  25.5566
 9.65425  25.2403
 9.73475  25.0122
 9.81525  24.5159
 9.89575  24.191
 9.97625  24.0236
 10.0567  23.9008
 10.1373  23.4431
 10.2178  23.4456
 10.2982  23.1402
 10.3788  22.9358
 10.4593  22.8555
 10.5397  22.5639
 10.6203  22.7005
 10.7007  22.4083
 10.7813  22.4242
 10.8618  22.5974
 10.9422  22.3052
 11.0228  22.3747
 11.1033  22.2853
 11.1837  22.0157
 11.2643  22.1313
 11.3447  22.1471
 11.4253  22.4499
 11.5058  22.3104
 11.5862  24.1114
 11.6668  22.434
 11.7473  22.1063
 11.8277  22.1135
 11.9083  22.2392
 11.9887  22.4132
 12.0693  22.5586
 12.1498  22.4879
 12.2302  22.149
 12.3108  22.142
 12.3913  22.1583
 12.4718  22.1771
 12.5523  22.3094
 12.6328  22.3547
 12.7133  22.5484
 12.7938  22.7553
 12.8742  23.1905
 12.9548  23.2404
 13.0353  23.8389
 13.1158  24.5114
 13.1963  25.1774
 13.2768  26.1864
 13.3573  27.2023
 13.4378  28.1523
 13.5183  28.8284
 13.5988  29.1998
 13.6793  29.3634
 13.7598  28.8179
 13.8403  28.5779
 13.9208  29.2529
 14.0013  28.6229
 14.0818  26.9794
 14.1623  26.5633
 14.2428  26.0714
 14.3233  25.7544
 14.4038  25.6256
 14.4843  25.3044
 14.5648  24.9856
 14.6453  24.6849
 14.7258  24.7322
 14.8063  24.8546
 14.8868  24.6023
 14.9673  24.4592
 15.0478  24.5291
 15.1283  24.5153
 15.2088  25.0184
 15.2892  24.1204
 15.3698  24.1111
 15.4503  24.0796
 15.5308  24.1493
 15.6113  24.2518
 15.6918  24.2312
 15.7723  24.1538
 15.8528  24.0821
 15.9332  24.2637
 16.0138  24.3008
 16.0943  24.2521
 16.1748  24.2981
 16.2553  24.7856
 16.3358  24.4452
 16.4163  24.3993
 16.4967  24.1333
 16.5773  24.2224
 16.6578  24.0251
 16.7383  24.0786
 16.8188  23.9706
 16.8992  23.8607
 16.9798  23.9128
 17.0603  23.7868
 17.1408  23.8762
 17.2213  23.8263
 17.3017  23.7234
 17.3823  23.6186
 17.4628  23.5706
 17.5433  23.651
 17.6238  23.5948
 17.7042  23.3742
 17.7847  23.4891
 17.8653  23.3731
 17.9458  23.278
 18.0263  23.5771
 18.1068  23.621
 18.1872  23.3692
 18.2678  23.2548
 18.3483  23.3456
 18.4288  23.3043
 18.5093  23.2774
 18.5897  23.0999
 18.6703  23.1642
 18.7508  23.0459
 18.8313  23.2059
 18.9118  23.0577
 18.9922  23.0836
 19.0727  23.169
 19.1533  23.2761
 19.2338  23.1083
 19.3143  23.092
 19.3948  23.331
 19.4752  23.1524
 19.5558  23.1912
 19.6363  23.285
 19.7168  24.1182
 19.7973  23.7446
 19.8777  23.9163
 19.9582  23.3318
 20.0388  23.3257
 20.1193  23.2679
 20.1998  23.325
 20.2803  23.2149
 20.3607  23.3201
 20.4413  23.4797
 20.5218  23.4024
 20.6023  23.4605
 20.6828  23.5462
 20.7632  23.7824
 20.8438  23.4564
 20.9243  23.6129
 21.0048  23.517
 21.0853  23.4515
 21.1658  23.4834
 21.2462  23.5132
 21.3268  23.5098
 21.4073  23.5522
 21.4878  23.6199
 21.5683  23.8032
 21.6487  23.6635
 21.7293  23.7258
 21.8098  23.8273
 21.8903  23.7219
 21.9708  23.8404
 22.0512  24.0581
 22.1318  23.9849
 22.2123  23.9702
 22.2928  24.0444
 22.3733  24.2556
 22.4538  24.3075
 22.5343  24.42
 22.6148  24.5218
 22.6953  24.8051
 22.7758  24.9531
 22.8563  25.1853
 22.9367  25.4517
 22.9943  25.8598