File: test-data-xrd/xrd-map-34-ID-E/Data_0121.chi
F:\20151113_APS_34IDE\\Brian\Particle1\OCV\Data_0121.tif
2-Theta Angle (Degrees)
Intensity
       2000
 0.07475  0.0000000E+00
 0.15525  0.0000000E+00
 0.23575  0.0000000E+00
 0.31625  0.0000000E+00
 0.39675  0.0000000E+00
 0.47725  0.0000000E+00
 0.55775  0.0000000E+00
 0.63825  0.0000000E+00
 0.71875  0.0000000E+00
 0.79925  0.0000000E+00
 0.87975  0.0000000E+00
 0.96025  0.0000000E+00
 1.04075  0.0000000E+00
 1.12125  0.0000000E+00
 1.20175  0.0000000E+00
 1.28225  0.0000000E+00
 1.36275  0.0000000E+00
 1.44325  0.0000000E+00
 1.52375  0.0000000E+00
 1.60425  0.0000000E+00
 1.68475  0.0000000E+00
 1.76525  0.0000000E+00
 1.84575  0.0000000E+00
 1.92625  0.0000000E+00
 2.00675  0.0000000E+00
 2.08725  0.0000000E+00
 2.16775  0.0000000E+00
 2.24825  0.0000000E+00
 2.32875  0.0000000E+00
 2.40925  0.0000000E+00
 2.48975  0.0000000E+00
 2.57025  0.0000000E+00
 2.65075  0.0000000E+00
 2.73125  0.0000000E+00
 2.81175  0.0000000E+00
 2.89225  34.5653
 2.97275  35.5433
 3.05325  34.375
 3.13375  35.1879
 3.21425  34.2119
 3.29475  33.4782
 3.37525  34.4318
 3.45575  34.5782
 3.53625  34.0126
 3.61675  32.9919
 3.69725  33.0451
 3.77775  32.7526
 3.85825  32.404
 3.93875  32.1397
 4.01925  32.403
 4.09975  32.3453
 4.18025  31.984
 4.26075  31.8066
 4.34125  31.9361
 4.42175  31.7937
 4.50225  32.1054
 4.58275  32.3902
 4.66325  32.4217
 4.74375  32.3765
 4.82425  32.166
 4.90475  32.4581
 4.98525  32.8358
 5.06575  32.8632
 5.14625  33.5112
 5.22675  33.4644
 5.30725  33.9123
 5.38775  34.0001
 5.46825  34.5268
 5.54875  34.6685
 5.62925  34.7141
 5.70975  35.1992
 5.79025  35.1411
 5.87075  35.4638
 5.95125  36.9381
 6.03175  36.5283
 6.11225  36.1634
 6.19275  36.6122
 6.27325  36.9612
 6.35375  37.9546
 6.43425  37.8954
 6.51475  38.691
 6.59525  39.3354
 6.67575  39.9855
 6.75625  40.4187
 6.83675  41.1226
 6.91725  41.6914
 6.99775  41.9687
 7.07825  42.3827
 7.15875  42.8754
 7.23925  43.3523
 7.31975  43.37
 7.40025  43.8218
 7.48075  44.0514
 7.56125  44.1228
 7.64175  44.2963
 7.72225  43.9851
 7.80275  44.0225
 7.88325  43.6003
 7.96375  43.2625
 8.04425  43.1277
 8.12475  42.3794
 8.20525  41.4132
 8.28575  40.6264
 8.36625  39.5069
 8.44675  38.4093
 8.52725  37.4192
 8.60775  36.0464
 8.68825  34.8894
 8.76875  33.675
 8.84925  32.5416
 8.92975  31.2966
 9.01025  30.4996
 9.09075  29.5688
 9.17125  28.8065
 9.25175  27.8408
 9.33225  27.3997
 9.41275  26.8405
 9.49325  26.2307
 9.57375  25.5925
 9.65425  25.4233
 9.73475  25.1288
 9.81525  24.6826
 9.89575  24.4467
 9.97625  24.1324
 10.0567  24.064
 10.1373  23.5995
 10.2178  23.4861
 10.2982  23.344
 10.3788  23.1583
 10.4593  23.0706
 10.5397  22.7467
 10.6203  22.7411
 10.7007  22.7728
 10.7813  22.5944
 10.8618  22.4171
 10.9422  22.3631
 11.0228  22.2811
 11.1033  22.3971
 11.1837  22.1679
 11.2643  22.0371
 11.3447  22.0312
 11.4253  22.2098
 11.5058  22.2359
 11.5862  23.0648
 11.6668  22.1714
 11.7473  22.0562
 11.8277  22.0605
 11.9083  21.9406
 11.9887  22.1585
 12.0693  22.3163
 12.1498  22.2637
 12.2302  22.1341
 12.3108  22.244
 12.3913  22.385
 12.4718  22.3355
 12.5523  22.406
 12.6328  22.5535
 12.7133  22.5036
 12.7938  22.7385
 12.8742  23.1406
 12.9548  23.347
 13.0353  23.8962
 13.1158  24.4408
 13.1963  25.2094
 13.2768  26.2275
 13.3573  27.4092
 13.4378  28.2122
 13.5183  28.9946
 13.5988  29.3025
 13.6793  29.4403
 13.7598  29.0366
 13.8403  28.6902
 13.9208  28.5833
 14.0013  27.9834
 14.0818  27.1171
 14.1623  26.6791
 14.2428  26.2244
 14.3233  25.7698
 14.4038  25.7689
 14.4843  25.354
 14.5648  25.298
 14.6453  24.9998
 14.7258  24.7484
 14.8063  24.6959
 14.8868  24.5222
 14.9673  24.411
 15.0478  24.4051
 15.1283  24.3605
 15.2088  24.8119
 15.2892  24.0748
 15.3698  24.1854
 15.4503  24.2037
 15.5308  24.1551
 15.6113  24.0231
 15.6918  24.2268
 15.7723  24.1811
 15.8528  24.1864
 15.9332  24.2134
 16.0138  24.2261
 16.0943  24.3472
 16.1748  24.4728
 16.2553  24.8092
 16.3358  24.5164
 16.4163  24.4347
 16.4967  24.2244
 16.5773  24.1565
 16.6578  24.1565
 16.7383  24.1295
 16.8188  24.0078
 16.8992  24.0525
 16.9798  24.0151
 17.0603  23.7446
 17.1408  23.7771
 17.2213  23.9138
 17.3017  23.7861
 17.3823  23.5806
 17.4628  23.9154
 17.5433  23.5715
 17.6238  23.6155
 17.7042  23.4208
 17.7847  23.3383
 17.8653  23.3434
 17.9458  23.3856
 18.0263  23.4017
 18.1068  23.514
 18.1872  23.231
 18.2678  23.2021
 18.3483  23.2303
 18.4288  23.1824
 18.5093  23.1768
 18.5897  23.2309
 18.6703  23.1391
 18.7508  23.0547
 18.8313  23.0662
 18.9118  23.039
 18.9922  22.9738
 19.0727  23.1069
 19.1533  23.2006
 19.2338  23.0982
 19.3143  23.1757
 19.3948  23.1789
 19.4752  23.1379
 19.5558  23.256
 19.6363  23.2784
 19.7168  23.6126
 19.7973  23.4203
 19.8777  23.4829
 19.9582  23.2856
 20.0388  23.1348
 20.1193  23.2624
 20.1998  23.2842
 20.2803  23.356
 20.3607  23.261
 20.4413  23.3544
 20.5218  23.2484
 20.6023  23.4517
 20.6828  24.0089
 20.7632  23.6741
 20.8438  23.502
 20.9243  23.5433
 21.0048  23.4675
 21.0853  23.4914
 21.1658  23.4396
 21.2462  23.5849
 21.3268  23.5434
 21.4073  23.5851
 21.4878  23.5181
 21.5683  23.682
 21.6487  23.8116
 21.7293  23.7499
 21.8098  23.727
 21.8903  23.7876
 21.9708  23.9139
 22.0512  24.0633
 22.1318  23.9528
 22.2123  23.9501
 22.2928  24.1845
 22.3733  24.1323
 22.4538  24.2915
 22.5343  24.4338
 22.6148  24.5612
 22.6953  24.7764
 22.7758  25.0195
 22.8563  25.1928
 22.9367  25.4574
 22.9943  25.8021