File: test-data-xrd/xrd-map-34-ID-E/Data_0112.chi
F:\20151113_APS_34IDE\\Brian\Particle1\OCV\Data_0112.tif
2-Theta Angle (Degrees)
Intensity
       2000
 0.07475  0.0000000E+00
 0.15525  0.0000000E+00
 0.23575  0.0000000E+00
 0.31625  0.0000000E+00
 0.39675  0.0000000E+00
 0.47725  0.0000000E+00
 0.55775  0.0000000E+00
 0.63825  0.0000000E+00
 0.71875  0.0000000E+00
 0.79925  0.0000000E+00
 0.87975  0.0000000E+00
 0.96025  0.0000000E+00
 1.04075  0.0000000E+00
 1.12125  0.0000000E+00
 1.20175  0.0000000E+00
 1.28225  0.0000000E+00
 1.36275  0.0000000E+00
 1.44325  0.0000000E+00
 1.52375  0.0000000E+00
 1.60425  0.0000000E+00
 1.68475  0.0000000E+00
 1.76525  0.0000000E+00
 1.84575  0.0000000E+00
 1.92625  0.0000000E+00
 2.00675  0.0000000E+00
 2.08725  0.0000000E+00
 2.16775  0.0000000E+00
 2.24825  0.0000000E+00
 2.32875  0.0000000E+00
 2.40925  0.0000000E+00
 2.48975  0.0000000E+00
 2.57025  0.0000000E+00
 2.65075  0.0000000E+00
 2.73125  0.0000000E+00
 2.81175  0.0000000E+00
 2.89225  35.3968
 2.97275  34.9661
 3.05325  35.3133
 3.13375  33.6705
 3.21425  34.1499
 3.29475  34.8546
 3.37525  34.6199
 3.45575  33.8429
 3.53625  33.3486
 3.61675  32.8369
 3.69725  32.8015
 3.77775  32.7192
 3.85825  32.7713
 3.93875  32.2597
 4.01925  31.7966
 4.09975  31.9274
 4.18025  31.8435
 4.26075  31.7449
 4.34125  31.7969
 4.42175  31.8945
 4.50225  32.3574
 4.58275  32.0714
 4.66325  32.3195
 4.74375  32.6587
 4.82425  32.0761
 4.90475  32.1405
 4.98525  32.7248
 5.06575  32.8987
 5.14625  33.5962
 5.22675  33.5941
 5.30725  33.5089
 5.38775  34.0224
 5.46825  33.6543
 5.54875  34.4785
 5.62925  34.9704
 5.70975  35.495
 5.79025  35.6537
 5.87075  36.4124
 5.95125  50.1277
 6.03175  46.8469
 6.11225  36.9333
 6.19275  36.4387
 6.27325  37.1001
 6.35375  37.8385
 6.43425  38.1146
 6.51475  38.6884
 6.59525  38.8303
 6.67575  39.7392
 6.75625  39.9469
 6.83675  41.0537
 6.91725  41.4132
 6.99775  41.8561
 7.07825  42.0048
 7.15875  42.412
 7.23925  42.8873
 7.31975  42.9826
 7.40025  43.2983
 7.48075  43.7561
 7.56125  43.8338
 7.64175  43.8388
 7.72225  43.8686
 7.80275  44.0584
 7.88325  43.4803
 7.96375  43.1977
 8.04425  42.8033
 8.12475  42.1555
 8.20525  41.5717
 8.28575  40.4801
 8.36625  39.4076
 8.44675  38.3209
 8.52725  37.3573
 8.60775  35.8965
 8.68825  35.0794
 8.76875  33.6797
 8.84925  32.5992
 8.92975  31.5124
 9.01025  30.4831
 9.09075  29.6023
 9.17125  28.5835
 9.25175  28.1161
 9.33225  27.3099
 9.41275  26.8335
 9.49325  26.4446
 9.57375  25.8926
 9.65425  25.4254
 9.73475  25.178
 9.81525  24.7511
 9.89575  24.3028
 9.97625  24.2087
 10.0567  23.8269
 10.1373  23.7306
 10.2178  23.6882
 10.2982  23.5761
 10.3788  23.2279
 10.4593  23.2439
 10.5397  23.0629
 10.6203  22.9092
 10.7007  22.7882
 10.7813  22.6522
 10.8618  22.5804
 10.9422  22.5605
 11.0228  22.4325
 11.1033  22.4632
 11.1837  22.4325
 11.2643  22.1384
 11.3447  22.3282
 11.4253  22.5817
 11.5058  22.9639
 11.5862  28.4585
 11.6668  23.3207
 11.7473  22.3674
 11.8277  22.2929
 11.9083  22.4627
 11.9887  22.8167
 12.0693  23.6756
 12.1498  23.7274
 12.2302  22.4317
 12.3108  22.3956
 12.3913  22.2945
 12.4718  22.3783
 12.5523  22.4703
 12.6328  22.7068
 12.7133  22.8895
 12.7938  23.0264
 12.8742  23.2662
 12.9548  23.6479
 13.0353  24.0198
 13.1158  24.8299
 13.1963  25.458
 13.2768  26.5148
 13.3573  27.4492
 13.4378  28.1151
 13.5183  29.1143
 13.5988  29.4761
 13.6793  29.5408
 13.7598  29.38
 13.8403  29.3547
 13.9208  36.1833
 14.0013  35.0795
 14.0818  27.6978
 14.1623  27.1833
 14.2428  26.4764
 14.3233  26.2206
 14.4038  25.76
 14.4843  25.6008
 14.5648  25.38
 14.6453  25.1459
 14.7258  25.0751
 14.8063  24.7842
 14.8868  24.7229
 14.9673  24.7359
 15.0478  24.6552
 15.1283  24.7016
 15.2088  26.3286
 15.2892  24.6572
 15.3698  24.2837
 15.4503  24.3261
 15.5308  24.2347
 15.6113  24.3718
 15.6918  24.3125
 15.7723  24.3317
 15.8528  24.4502
 15.9332  24.4151
 16.0138  24.4888
 16.0943  24.5662
 16.1748  24.7099
 16.2553  27.7951
 16.3358  24.975
 16.4163  24.5308
 16.4967  24.5091
 16.5773  24.304
 16.6578  24.3447
 16.7383  24.3066
 16.8188  24.2606
 16.8992  24.1862
 16.9798  24.1825
 17.0603  24.0393
 17.1408  24.2514
 17.2213  24.1168
 17.3017  23.969
 17.3823  23.984
 17.4628  23.8099
 17.5433  23.7448
 17.6238  23.8709
 17.7042  23.6813
 17.7847  23.7209
 17.8653  23.6695
 17.9458  23.7369
 18.0263  23.9356
 18.1068  24.6631
 18.1872  23.7753
 18.2678  23.6211
 18.3483  23.6623
 18.4288  23.5129
 18.5093  23.3461
 18.5897  23.5036
 18.6703  23.2803
 18.7508  23.3495
 18.8313  23.3583
 18.9118  23.2658
 18.9922  23.2877
 19.0727  23.4911
 19.1533  23.473
 19.2338  23.4751
 19.3143  23.6112
 19.3948  23.5202
 19.4752  23.644
 19.5558  23.6664
 19.6363  24.2777
 19.7168  28.8883
 19.7973  25.8866
 19.8777  32.3897
 19.9582  24.2647
 20.0388  23.7709
 20.1193  23.8125
 20.1998  23.6826
 20.2803  23.494
 20.3607  23.6053
 20.4413  23.6016
 20.5218  23.529
 20.6023  23.7897
 20.6828  24.1511
 20.7632  26.5821
 20.8438  24.3964
 20.9243  23.7574
 21.0048  23.849
 21.0853  23.7793
 21.1658  23.7665
 21.2462  23.7728
 21.3268  23.8303
 21.4073  23.848
 21.4878  23.9133
 21.5683  23.8412
 21.6487  23.9799
 21.7293  23.9658
 21.8098  24.0486
 21.8903  24.0361
 21.9708  24.0878
 22.0512  24.1324
 22.1318  24.2974
 22.2123  24.2751
 22.2928  24.2568
 22.3733  24.493
 22.4538  24.5657
 22.5343  24.585
 22.6148  24.6978
 22.6953  24.8895
 22.7758  25.1007
 22.8563  25.7307
 22.9367  25.6216
 22.9943  26.0431