File: test-data-xrd/xrd-map-34-ID-E/Data_0095.chi
F:\20151113_APS_34IDE\\Brian\Particle1\OCV\Data_0095.tif
2-Theta Angle (Degrees)
Intensity
       2000
 0.07475  0.0000000E+00
 0.15525  0.0000000E+00
 0.23575  0.0000000E+00
 0.31625  0.0000000E+00
 0.39675  0.0000000E+00
 0.47725  0.0000000E+00
 0.55775  0.0000000E+00
 0.63825  0.0000000E+00
 0.71875  0.0000000E+00
 0.79925  0.0000000E+00
 0.87975  0.0000000E+00
 0.96025  0.0000000E+00
 1.04075  0.0000000E+00
 1.12125  0.0000000E+00
 1.20175  0.0000000E+00
 1.28225  0.0000000E+00
 1.36275  0.0000000E+00
 1.44325  0.0000000E+00
 1.52375  0.0000000E+00
 1.60425  0.0000000E+00
 1.68475  0.0000000E+00
 1.76525  0.0000000E+00
 1.84575  0.0000000E+00
 1.92625  0.0000000E+00
 2.00675  0.0000000E+00
 2.08725  0.0000000E+00
 2.16775  0.0000000E+00
 2.24825  0.0000000E+00
 2.32875  0.0000000E+00
 2.40925  0.0000000E+00
 2.48975  0.0000000E+00
 2.57025  0.0000000E+00
 2.65075  0.0000000E+00
 2.73125  0.0000000E+00
 2.81175  0.0000000E+00
 2.89225  36.8826
 2.97275  36.6927
 3.05325  35.8024
 3.13375  36.3495
 3.21425  34.8874
 3.29475  33.7002
 3.37525  35.1009
 3.45575  35.1665
 3.53625  33.8051
 3.61675  33.4643
 3.69725  32.6874
 3.77775  33.352
 3.85825  33.1178
 3.93875  32.256
 4.01925  32.6964
 4.09975  32.3825
 4.18025  32.2585
 4.26075  32.114
 4.34125  32.0844
 4.42175  32.5329
 4.50225  32.8673
 4.58275  32.6727
 4.66325  32.9569
 4.74375  32.9423
 4.82425  32.5357
 4.90475  32.8686
 4.98525  33.3352
 5.06575  33.2734
 5.14625  33.7196
 5.22675  34.2433
 5.30725  34.0517
 5.38775  34.4974
 5.46825  34.7041
 5.54875  35.0017
 5.62925  35.328
 5.70975  35.7826
 5.79025  35.954
 5.87075  36.3147
 5.95125  43.7762
 6.03175  44.3719
 6.11225  37.2526
 6.19275  37.1228
 6.27325  37.6047
 6.35375  38.2098
 6.43425  38.8119
 6.51475  39.2448
 6.59525  39.7457
 6.67575  40.2914
 6.75625  40.8146
 6.83675  41.7869
 6.91725  41.9733
 6.99775  42.6129
 7.07825  43.2392
 7.15875  43.3392
 7.23925  43.8133
 7.31975  43.9453
 7.40025  44.0401
 7.48075  44.4937
 7.56125  44.2375
 7.64175  44.613
 7.72225  44.2714
 7.80275  44.4824
 7.88325  44.0592
 7.96375  43.8151
 8.04425  43.5932
 8.12475  42.6117
 8.20525  41.8231
 8.28575  40.7218
 8.36625  39.8593
 8.44675  38.9358
 8.52725  37.7821
 8.60775  36.514
 8.68825  35.1758
 8.76875  33.8185
 8.84925  32.9267
 8.92975  31.7192
 9.01025  30.6559
 9.09075  29.6275
 9.17125  28.9365
 9.25175  28.0455
 9.33225  27.3851
 9.41275  26.7602
 9.49325  26.4633
 9.57375  26.0092
 9.65425  25.6564
 9.73475  25.2115
 9.81525  25.0622
 9.89575  24.7713
 9.97625  25.1472
 10.0567  24.164
 10.1373  24.0542
 10.2178  23.8717
 10.2982  23.6152
 10.3788  23.5238
 10.4593  23.2492
 10.5397  23.331
 10.6203  23.0463
 10.7007  22.9922
 10.7813  22.9004
 10.8618  22.6908
 10.9422  22.797
 11.0228  22.6249
 11.1033  22.5024
 11.1837  22.5474
 11.2643  22.5048
 11.3447  22.4946
 11.4253  22.7307
 11.5058  22.8698
 11.5862  26.8968
 11.6668  23.4395
 11.7473  22.5102
 11.8277  22.48
 11.9083  22.4682
 11.9887  23.395
 12.0693  24.1504
 12.1498  23.3383
 12.2302  22.3886
 12.3108  22.4803
 12.3913  22.584
 12.4718  22.7624
 12.5523  22.7313
 12.6328  22.8631
 12.7133  22.9103
 12.7938  23.014
 12.8742  23.4087
 12.9548  23.934
 13.0353  24.2603
 13.1158  24.8835
 13.1963  26.0423
 13.2768  26.6586
 13.3573  27.7356
 13.4378  28.5021
 13.5183  29.4617
 13.5988  30.0049
 13.6793  29.9065
 13.7598  29.9689
 13.8403  30.3787
 13.9208  46.0573
 14.0013  48.6689
 14.0818  28.9215
 14.1623  27.6381
 14.2428  26.9568
 14.3233  26.3878
 14.4038  26.2057
 14.4843  25.7337
 14.5648  25.722
 14.6453  25.4568
 14.7258  25.3061
 14.8063  24.9632
 14.8868  25.023
 14.9673  24.8552
 15.0478  24.9561
 15.1283  25.253
 15.2088  27.4394
 15.2892  25.0105
 15.3698  24.7575
 15.4503  24.7103
 15.5308  24.4868
 15.6113  24.6271
 15.6918  24.7977
 15.7723  24.6057
 15.8528  24.5272
 15.9332  24.6841
 16.0138  24.6515
 16.0943  24.8365
 16.1748  24.9172
 16.2553  25.6072
 16.3358  25.0302
 16.4163  24.8004
 16.4967  24.8026
 16.5773  24.6674
 16.6578  24.5694
 16.7383  24.6162
 16.8188  24.5378
 16.8992  24.394
 16.9798  24.1785
 17.0603  24.1442
 17.1408  24.3102
 17.2213  24.1943
 17.3017  24.126
 17.3823  24.1402
 17.4628  23.9777
 17.5433  23.9298
 17.6238  23.93
 17.7042  23.9193
 17.7847  24.0234
 17.8653  24.0138
 17.9458  24.0548
 18.0263  24.6709
 18.1068  26.4654
 18.1872  24.1577
 18.2678  23.7144
 18.3483  23.7491
 18.4288  23.7146
 18.5093  23.6756
 18.5897  23.5616
 18.6703  23.5262
 18.7508  23.5624
 18.8313  23.5823
 18.9118  23.5733
 18.9922  23.5113
 19.0727  23.6318
 19.1533  23.6111
 19.2338  23.5945
 19.3143  23.6759
 19.3948  23.6969
 19.4752  23.9085
 19.5558  23.9205
 19.6363  24.458
 19.7168  29.782
 19.7973  26.1009
 19.8777  28.9722
 19.9582  24.3598
 20.0388  24.0229
 20.1193  23.9178
 20.1998  23.7783
 20.2803  23.8973
 20.3607  23.7341
 20.4413  23.8309
 20.5218  23.8563
 20.6023  24.034
 20.6828  24.7211
 20.7632  27.4113
 20.8438  24.5179
 20.9243  24.0421
 21.0048  23.9378
 21.0853  24.0156
 21.1658  23.9278
 21.2462  23.8188
 21.3268  23.9221
 21.4073  23.9467
 21.4878  24.3391
 21.5683  24.0692
 21.6487  24.0706
 21.7293  24.1259
 21.8098  24.1574
 21.8903  24.2172
 21.9708  24.2577
 22.0512  24.2756
 22.1318  24.2974
 22.2123  24.3693
 22.2928  24.5209
 22.3733  24.6675
 22.4538  24.5935
 22.5343  24.7686
 22.6148  24.8913
 22.6953  25.2002
 22.7758  25.3099
 22.8563  25.6187
 22.9367  25.9936
 22.9943  26.463