File: test-data-xrd/xrd-map-34-ID-E/Data_0087.chi
F:\20151113_APS_34IDE\\Brian\Particle1\OCV\Data_0087.tif
2-Theta Angle (Degrees)
Intensity
       2000
 0.07475  0.0000000E+00
 0.15525  0.0000000E+00
 0.23575  0.0000000E+00
 0.31625  0.0000000E+00
 0.39675  0.0000000E+00
 0.47725  0.0000000E+00
 0.55775  0.0000000E+00
 0.63825  0.0000000E+00
 0.71875  0.0000000E+00
 0.79925  0.0000000E+00
 0.87975  0.0000000E+00
 0.96025  0.0000000E+00
 1.04075  0.0000000E+00
 1.12125  0.0000000E+00
 1.20175  0.0000000E+00
 1.28225  0.0000000E+00
 1.36275  0.0000000E+00
 1.44325  0.0000000E+00
 1.52375  0.0000000E+00
 1.60425  0.0000000E+00
 1.68475  0.0000000E+00
 1.76525  0.0000000E+00
 1.84575  0.0000000E+00
 1.92625  0.0000000E+00
 2.00675  0.0000000E+00
 2.08725  0.0000000E+00
 2.16775  0.0000000E+00
 2.24825  0.0000000E+00
 2.32875  0.0000000E+00
 2.40925  0.0000000E+00
 2.48975  0.0000000E+00
 2.57025  0.0000000E+00
 2.65075  0.0000000E+00
 2.73125  0.0000000E+00
 2.81175  0.0000000E+00
 2.89225  33.7365
 2.97275  34.6635
 3.05325  36.2384
 3.13375  36.2045
 3.21425  36.372
 3.29475  34.7792
 3.37525  35.4838
 3.45575  33.8772
 3.53625  33.9839
 3.61675  33.6875
 3.69725  33.6955
 3.77775  32.7916
 3.85825  32.773
 3.93875  32.4859
 4.01925  32.4433
 4.09975  32.08
 4.18025  32.2161
 4.26075  32.0381
 4.34125  32.2441
 4.42175  32.2662
 4.50225  32.0678
 4.58275  32.6526
 4.66325  32.932
 4.74375  32.4491
 4.82425  32.6325
 4.90475  32.6939
 4.98525  32.9622
 5.06575  33.2389
 5.14625  33.6753
 5.22675  34.1157
 5.30725  33.9334
 5.38775  34.6236
 5.46825  34.488
 5.54875  34.8296
 5.62925  35.2313
 5.70975  35.5262
 5.79025  35.6202
 5.87075  35.7992
 5.95125  37.9262
 6.03175  37.3296
 6.11225  36.8587
 6.19275  36.9715
 6.27325  37.539
 6.35375  38.2685
 6.43425  38.7136
 6.51475  39.0664
 6.59525  39.5438
 6.67575  40.1293
 6.75625  40.4671
 6.83675  41.5247
 6.91725  41.8761
 6.99775  42.2999
 7.07825  42.9902
 7.15875  43.5326
 7.23925  43.6741
 7.31975  43.9405
 7.40025  44.3173
 7.48075  44.4564
 7.56125  44.2491
 7.64175  44.2833
 7.72225  44.5199
 7.80275  44.3389
 7.88325  44.31
 7.96375  44.1914
 8.04425  43.904
 8.12475  42.6991
 8.20525  42.1651
 8.28575  41.2342
 8.36625  40.4183
 8.44675  39.0604
 8.52725  37.8618
 8.60775  36.5567
 8.68825  35.3102
 8.76875  34.0094
 8.84925  32.8975
 8.92975  31.6231
 9.01025  30.6427
 9.09075  29.7308
 9.17125  28.9819
 9.25175  28.3012
 9.33225  27.4897
 9.41275  26.8942
 9.49325  26.3116
 9.57375  25.7306
 9.65425  25.4888
 9.73475  25.1606
 9.81525  24.7981
 9.89575  24.3471
 9.97625  24.187
 10.0567  24.0185
 10.1373  23.78
 10.2178  23.6244
 10.2982  23.507
 10.3788  23.5438
 10.4593  23.2485
 10.5397  23.064
 10.6203  23.0108
 10.7007  22.8554
 10.7813  22.6545
 10.8618  22.5432
 10.9422  22.5748
 11.0228  22.475
 11.1033  22.3632
 11.1837  22.4513
 11.2643  22.4181
 11.3447  22.3493
 11.4253  22.6497
 11.5058  22.4442
 11.5862  23.7677
 11.6668  22.6232
 11.7473  22.3584
 11.8277  22.3085
 11.9083  22.2538
 11.9887  22.4948
 12.0693  22.4018
 12.1498  22.7109
 12.2302  22.329
 12.3108  22.4324
 12.3913  22.4987
 12.4718  22.4932
 12.5523  22.7918
 12.6328  22.8502
 12.7133  22.8467
 12.7938  23.0111
 12.8742  23.2698
 12.9548  23.5359
 13.0353  23.981
 13.1158  24.7848
 13.1963  25.6165
 13.2768  26.5625
 13.3573  27.6918
 13.4378  28.5484
 13.5183  29.2579
 13.5988  29.7391
 13.6793  29.6852
 13.7598  29.2132
 13.8403  28.7585
 13.9208  29.7647
 14.0013  28.9248
 14.0818  27.3095
 14.1623  26.6882
 14.2428  26.4046
 14.3233  25.9433
 14.4038  25.7609
 14.4843  25.338
 14.5648  25.4473
 14.6453  25.2422
 14.7258  24.9608
 14.8063  24.7907
 14.8868  24.6768
 14.9673  24.5947
 15.0478  24.7688
 15.1283  24.7688
 15.2088  26.2526
 15.2892  24.5758
 15.3698  24.2937
 15.4503  24.2697
 15.5308  24.2956
 15.6113  24.4938
 15.6918  24.3445
 15.7723  24.458
 15.8528  24.3931
 15.9332  24.4497
 16.0138  24.2645
 16.0943  24.5688
 16.1748  24.6345
 16.2553  25.0813
 16.3358  24.7067
 16.4163  24.6144
 16.4967  24.4791
 16.5773  24.5385
 16.6578  24.3553
 16.7383  24.2217
 16.8188  24.3199
 16.8992  24.311
 16.9798  24.0334
 17.0603  23.9456
 17.1408  24.1126
 17.2213  24.0706
 17.3017  23.895
 17.3823  23.8477
 17.4628  23.9065
 17.5433  23.7622
 17.6238  23.7227
 17.7042  23.7405
 17.7847  23.5168
 17.8653  23.5769
 17.9458  23.5135
 18.0263  23.6543
 18.1068  23.7393
 18.1872  23.4724
 18.2678  23.4356
 18.3483  23.4305
 18.4288  23.4981
 18.5093  23.3406
 18.5897  23.259
 18.6703  23.3268
 18.7508  23.1801
 18.8313  23.273
 18.9118  23.3171
 18.9922  23.1599
 19.0727  23.3005
 19.1533  23.1544
 19.2338  23.2874
 19.3143  23.2507
 19.3948  23.3768
 19.4752  23.4488
 19.5558  23.3608
 19.6363  23.4412
 19.7168  24.2133
 19.7973  23.8555
 19.8777  24.0179
 19.9582  23.3686
 20.0388  23.4417
 20.1193  23.3849
 20.1998  23.4069
 20.2803  23.3558
 20.3607  23.3777
 20.4413  23.5825
 20.5218  23.4494
 20.6023  23.5435
 20.6828  23.5682
 20.7632  24.0508
 20.8438  23.6831
 20.9243  23.6347
 21.0048  23.4847
 21.0853  23.6205
 21.1658  23.5702
 21.2462  23.6219
 21.3268  23.6167
 21.4073  23.6596
 21.4878  23.8372
 21.5683  23.6525
 21.6487  23.762
 21.7293  23.8335
 21.8098  23.8433
 21.8903  23.8931
 21.9708  23.9014
 22.0512  23.9458
 22.1318  24.0173
 22.2123  23.9944
 22.2928  24.1466
 22.3733  24.3147
 22.4538  24.431
 22.5343  24.5485
 22.6148  24.6663
 22.6953  25.102
 22.7758  24.9433
 22.8563  25.2047
 22.9367  25.5373
 22.9943  25.913