File: test-data-xrd/xrd-map-34-ID-E/Data_0091.chi
F:\20151113_APS_34IDE\\Brian\Particle1\OCV\Data_0091.tif
2-Theta Angle (Degrees)
Intensity
       2000
 0.07475  0.0000000E+00
 0.15525  0.0000000E+00
 0.23575  0.0000000E+00
 0.31625  0.0000000E+00
 0.39675  0.0000000E+00
 0.47725  0.0000000E+00
 0.55775  0.0000000E+00
 0.63825  0.0000000E+00
 0.71875  0.0000000E+00
 0.79925  0.0000000E+00
 0.87975  0.0000000E+00
 0.96025  0.0000000E+00
 1.04075  0.0000000E+00
 1.12125  0.0000000E+00
 1.20175  0.0000000E+00
 1.28225  0.0000000E+00
 1.36275  0.0000000E+00
 1.44325  0.0000000E+00
 1.52375  0.0000000E+00
 1.60425  0.0000000E+00
 1.68475  0.0000000E+00
 1.76525  0.0000000E+00
 1.84575  0.0000000E+00
 1.92625  0.0000000E+00
 2.00675  0.0000000E+00
 2.08725  0.0000000E+00
 2.16775  0.0000000E+00
 2.24825  0.0000000E+00
 2.32875  0.0000000E+00
 2.40925  0.0000000E+00
 2.48975  0.0000000E+00
 2.57025  0.0000000E+00
 2.65075  0.0000000E+00
 2.73125  0.0000000E+00
 2.81175  0.0000000E+00
 2.89225  35.903
 2.97275  35.635
 3.05325  35.9486
 3.13375  35.238
 3.21425  34.5144
 3.29475  33.6944
 3.37525  34.4993
 3.45575  34.798
 3.53625  34.3572
 3.61675  33.4857
 3.69725  33.4661
 3.77775  33.1917
 3.85825  32.8643
 3.93875  33.109
 4.01925  32.9846
 4.09975  32.8026
 4.18025  32.3625
 4.26075  32.7445
 4.34125  32.8334
 4.42175  32.8734
 4.50225  32.7358
 4.58275  32.7389
 4.66325  33.4365
 4.74375  32.7925
 4.82425  32.8834
 4.90475  33.1144
 4.98525  33.6037
 5.06575  33.6035
 5.14625  34.0825
 5.22675  33.8799
 5.30725  34.3298
 5.38775  35.0981
 5.46825  34.8474
 5.54875  35.6265
 5.62925  35.6929
 5.70975  35.8434
 5.79025  35.9834
 5.87075  36.571
 5.95125  45.5751
 6.03175  43.6829
 6.11225  37.3349
 6.19275  37.2401
 6.27325  37.7547
 6.35375  38.3538
 6.43425  38.7484
 6.51475  39.454
 6.59525  39.8025
 6.67575  40.3417
 6.75625  40.9571
 6.83675  41.527
 6.91725  42.4099
 6.99775  42.2271
 7.07825  42.9719
 7.15875  43.2416
 7.23925  43.8164
 7.31975  44.1036
 7.40025  44.3017
 7.48075  44.653
 7.56125  44.3775
 7.64175  44.8703
 7.72225  44.4924
 7.80275  44.1961
 7.88325  43.9542
 7.96375  43.7236
 8.04425  43.3067
 8.12475  42.4406
 8.20525  41.7592
 8.28575  41.113
 8.36625  40.8242
 8.44675  38.816
 8.52725  37.5182
 8.60775  36.3706
 8.68825  35.0762
 8.76875  33.8862
 8.84925  32.9801
 8.92975  31.5068
 9.01025  30.6582
 9.09075  29.5854
 9.17125  28.9567
 9.25175  28.1278
 9.33225  27.3077
 9.41275  26.654
 9.49325  26.22
 9.57375  25.8912
 9.65425  25.5929
 9.73475  25.138
 9.81525  24.8733
 9.89575  24.5358
 9.97625  24.3556
 10.0567  24.0281
 10.1373  23.833
 10.2178  23.7373
 10.2982  23.6106
 10.3788  23.428
 10.4593  23.2365
 10.5397  23.0628
 10.6203  22.9313
 10.7007  22.7579
 10.7813  22.8587
 10.8618  22.8554
 10.9422  22.5251
 11.0228  22.5486
 11.1033  22.4807
 11.1837  22.4658
 11.2643  22.5189
 11.3447  22.514
 11.4253  22.9101
 11.5058  23.5936
 11.5862  33.9868
 11.6668  24.9959
 11.7473  22.9328
 11.8277  22.7006
 11.9083  22.8783
 11.9887  24.1349
 12.0693  25.1373
 12.1498  24.3848
 12.2302  22.7743
 12.3108  22.6045
 12.3913  22.6135
 12.4718  22.5858
 12.5523  22.7893
 12.6328  22.8872
 12.7133  22.9528
 12.7938  23.1135
 12.8742  23.3744
 12.9548  23.8315
 13.0353  24.2416
 13.1158  24.9151
 13.1963  25.7216
 13.2768  26.8232
 13.3573  28.0634
 13.4378  28.5469
 13.5183  29.4467
 13.5988  29.7792
 13.6793  29.6665
 13.7598  29.5787
 13.8403  29.6983
 13.9208  35.732
 14.0013  34.7492
 14.0818  27.958
 14.1623  27.1623
 14.2428  26.5685
 14.3233  26.1621
 14.4038  26.0061
 14.4843  25.753
 14.5648  25.7954
 14.6453  25.5083
 14.7258  25.2765
 14.8063  25.0524
 14.8868  24.969
 14.9673  24.8398
 15.0478  24.8534
 15.1283  25.3572
 15.2088  27.5439
 15.2892  24.8336
 15.3698  24.7955
 15.4503  24.6237
 15.5308  24.6775
 15.6113  24.6538
 15.6918  24.5239
 15.7723  24.6478
 15.8528  24.6656
 15.9332  24.8554
 16.0138  24.7884
 16.0943  24.7182
 16.1748  24.9965
 16.2553  26.9852
 16.3358  25.1327
 16.4163  24.8718
 16.4967  24.7891
 16.5773  24.6109
 16.6578  24.6814
 16.7383  24.558
 16.8188  24.4736
 16.8992  24.3777
 16.9798  24.4719
 17.0603  24.2017
 17.1408  24.3385
 17.2213  24.3119
 17.3017  24.2976
 17.3823  24.1195
 17.4628  24.0635
 17.5433  23.9462
 17.6238  23.8911
 17.7042  24.0247
 17.7847  23.9908
 17.8653  24.018
 17.9458  24.2491
 18.0263  25.2664
 18.1068  33.7014
 18.1872  24.9283
 18.2678  23.9571
 18.3483  23.7358
 18.4288  23.7071
 18.5093  23.749
 18.5897  23.9073
 18.6703  23.5585
 18.7508  23.6007
 18.8313  23.455
 18.9118  23.4667
 18.9922  23.4768
 19.0727  23.611
 19.1533  23.7231
 19.2338  23.673
 19.3143  23.6827
 19.3948  23.667
 19.4752  23.8558
 19.5558  23.8732
 19.6363  24.6105
 19.7168  27.2529
 19.7973  30.3454
 19.8777  28.5293
 19.9582  24.4887
 20.0388  23.9816
 20.1193  23.9153
 20.1998  23.9834
 20.2803  23.9822
 20.3607  23.7056
 20.4413  23.8411
 20.5218  23.8094
 20.6023  23.912
 20.6828  24.6638
 20.7632  27.5225
 20.8438  24.5402
 20.9243  24.1118
 21.0048  23.9252
 21.0853  23.9459
 21.1658  23.8784
 21.2462  23.9901
 21.3268  23.9863
 21.4073  23.9054
 21.4878  24.0629
 21.5683  24.0073
 21.6487  24.048
 21.7293  24.1486
 21.8098  24.106
 21.8903  24.2029
 21.9708  24.2036
 22.0512  24.3708
 22.1318  24.3534
 22.2123  24.3492
 22.2928  24.5318
 22.3733  24.5315
 22.4538  24.636
 22.5343  24.9035
 22.6148  24.9757
 22.6953  25.129
 22.7758  25.3561
 22.8563  25.5997
 22.9367  25.9833
 22.9943  26.5105