File: test-data-xrd/xrd-map-34-ID-E/Data_0105.chi
F:\20151113_APS_34IDE\\Brian\Particle1\OCV\Data_0105.tif
2-Theta Angle (Degrees)
Intensity
       2000
 0.07475  0.0000000E+00
 0.15525  0.0000000E+00
 0.23575  0.0000000E+00
 0.31625  0.0000000E+00
 0.39675  0.0000000E+00
 0.47725  0.0000000E+00
 0.55775  0.0000000E+00
 0.63825  0.0000000E+00
 0.71875  0.0000000E+00
 0.79925  0.0000000E+00
 0.87975  0.0000000E+00
 0.96025  0.0000000E+00
 1.04075  0.0000000E+00
 1.12125  0.0000000E+00
 1.20175  0.0000000E+00
 1.28225  0.0000000E+00
 1.36275  0.0000000E+00
 1.44325  0.0000000E+00
 1.52375  0.0000000E+00
 1.60425  0.0000000E+00
 1.68475  0.0000000E+00
 1.76525  0.0000000E+00
 1.84575  0.0000000E+00
 1.92625  0.0000000E+00
 2.00675  0.0000000E+00
 2.08725  0.0000000E+00
 2.16775  0.0000000E+00
 2.24825  0.0000000E+00
 2.32875  0.0000000E+00
 2.40925  0.0000000E+00
 2.48975  0.0000000E+00
 2.57025  0.0000000E+00
 2.65075  0.0000000E+00
 2.73125  0.0000000E+00
 2.81175  0.0000000E+00
 2.89225  33.8177
 2.97275  36.3005
 3.05325  34.5661
 3.13375  35.8579
 3.21425  35.365
 3.29475  35.0878
 3.37525  34.2626
 3.45575  34.4849
 3.53625  33.6085
 3.61675  33.1483
 3.69725  32.7566
 3.77775  32.7726
 3.85825  32.5908
 3.93875  32.7565
 4.01925  32.1086
 4.09975  31.6616
 4.18025  32.201
 4.26075  32.3892
 4.34125  32.3059
 4.42175  32.4279
 4.50225  32.4364
 4.58275  33.1384
 4.66325  32.6372
 4.74375  32.3678
 4.82425  32.5038
 4.90475  32.9515
 4.98525  32.7424
 5.06575  33.2336
 5.14625  33.483
 5.22675  33.658
 5.30725  34.0034
 5.38775  34.1235
 5.46825  34.6884
 5.54875  34.6613
 5.62925  34.985
 5.70975  35.1895
 5.79025  35.4961
 5.87075  35.9016
 5.95125  41.9688
 6.03175  39.813
 6.11225  36.8324
 6.19275  37.0329
 6.27325  37.2304
 6.35375  37.5022
 6.43425  38.5206
 6.51475  39.1014
 6.59525  39.7864
 6.67575  40.1835
 6.75625  40.5374
 6.83675  41.2105
 6.91725  41.7385
 6.99775  42.1729
 7.07825  42.5327
 7.15875  42.8468
 7.23925  43.4295
 7.31975  43.6392
 7.40025  43.8336
 7.48075  44.0189
 7.56125  44.0724
 7.64175  44.1157
 7.72225  44.1034
 7.80275  43.8101
 7.88325  43.7934
 7.96375  43.4794
 8.04425  42.9207
 8.12475  42.8006
 8.20525  41.6351
 8.28575  40.9301
 8.36625  39.7332
 8.44675  38.8297
 8.52725  37.3645
 8.60775  36.1618
 8.68825  35.1247
 8.76875  33.9139
 8.84925  32.7166
 8.92975  31.5265
 9.01025  30.4308
 9.09075  29.7619
 9.17125  28.803
 9.25175  27.847
 9.33225  27.3961
 9.41275  27.0772
 9.49325  26.3703
 9.57375  25.7107
 9.65425  25.4021
 9.73475  25.2958
 9.81525  24.9698
 9.89575  24.6196
 9.97625  24.1536
 10.0567  24.0983
 10.1373  23.8752
 10.2178  23.6343
 10.2982  23.4473
 10.3788  23.273
 10.4593  23.2585
 10.5397  23.1457
 10.6203  23.0287
 10.7007  22.8686
 10.7813  22.8179
 10.8618  22.708
 10.9422  22.5791
 11.0228  22.4587
 11.1033  22.5354
 11.1837  22.3033
 11.2643  22.3751
 11.3447  22.4815
 11.4253  22.8601
 11.5058  23.7109
 11.5862  35.6109
 11.6668  23.4832
 11.7473  22.5194
 11.8277  22.5544
 11.9083  22.7355
 11.9887  24.5107
 12.0693  24.4969
 12.1498  23.7471
 12.2302  22.6222
 12.3108  22.5572
 12.3913  22.55
 12.4718  22.6593
 12.5523  22.6863
 12.6328  22.6364
 12.7133  22.88
 12.7938  23.0482
 12.8742  23.7379
 12.9548  23.8336
 13.0353  24.0864
 13.1158  24.8189
 13.1963  25.5575
 13.2768  26.4951
 13.3573  27.5026
 13.4378  28.4426
 13.5183  29.2369
 13.5988  29.7978
 13.6793  29.7135
 13.7598  29.507
 13.8403  29.7589
 13.9208  40.3537
 14.0013  36.7313
 14.0818  27.9891
 14.1623  26.9272
 14.2428  26.3775
 14.3233  26.1554
 14.4038  25.9828
 14.4843  25.7356
 14.5648  25.4939
 14.6453  25.2429
 14.7258  25.1478
 14.8063  24.8978
 14.8868  24.7797
 14.9673  24.7318
 15.0478  24.9842
 15.1283  25.7182
 15.2088  28.0817
 15.2892  24.9778
 15.3698  24.435
 15.4503  24.3263
 15.5308  24.4544
 15.6113  24.5251
 15.6918  24.424
 15.7723  24.4186
 15.8528  24.5641
 15.9332  24.5454
 16.0138  24.6925
 16.0943  24.5446
 16.1748  24.902
 16.2553  25.7586
 16.3358  24.9843
 16.4163  24.5532
 16.4967  24.5979
 16.5773  24.6514
 16.6578  24.3587
 16.7383  24.4321
 16.8188  24.3082
 16.8992  24.1959
 16.9798  24.322
 17.0603  24.1366
 17.1408  24.2089
 17.2213  23.9737
 17.3017  24.0403
 17.3823  24.0334
 17.4628  23.9316
 17.5433  23.7967
 17.6238  23.6846
 17.7042  23.7101
 17.7847  23.6861
 17.8653  23.6727
 17.9458  23.8025
 18.0263  24.3631
 18.1068  25.1403
 18.1872  23.8921
 18.2678  23.4706
 18.3483  23.5502
 18.4288  23.5541
 18.5093  23.4625
 18.5897  23.5335
 18.6703  23.3216
 18.7508  23.344
 18.8313  23.3693
 18.9118  23.514
 18.9922  23.4281
 19.0727  23.4368
 19.1533  23.5268
 19.2338  23.3952
 19.3143  23.5664
 19.3948  23.5384
 19.4752  23.5636
 19.5558  23.5826
 19.6363  23.9492
 19.7168  26.1021
 19.7973  25.0821
 19.8777  26.364
 19.9582  23.8712
 20.0388  23.5957
 20.1193  23.6482
 20.1998  23.6961
 20.2803  23.6684
 20.3607  23.4525
 20.4413  23.6934
 20.5218  23.6427
 20.6023  23.8744
 20.6828  24.585
 20.7632  30.743
 20.8438  25.2375
 20.9243  24.0876
 21.0048  23.848
 21.0853  23.9206
 21.1658  23.7859
 21.2462  23.7954
 21.3268  23.7695
 21.4073  23.739
 21.4878  23.8915
 21.5683  23.7745
 21.6487  23.8719
 21.7293  23.9906
 21.8098  24.0988
 21.8903  24.1396
 21.9708  24.1409
 22.0512  24.2126
 22.1318  24.1755
 22.2123  24.2863
 22.2928  24.4047
 22.3733  24.4802
 22.4538  24.5326
 22.5343  24.6182
 22.6148  24.9068
 22.6953  25.1707
 22.7758  25.2457
 22.8563  25.4265
 22.9367  25.9317
 22.9943  26.335