File: test-data-xrd/xrd-map-34-ID-E/Data_0061.chi
F:\20151113_APS_34IDE\\Brian\Particle1\OCV\Data_0061.tif
2-Theta Angle (Degrees)
Intensity
       2000
 0.07475  0.0000000E+00
 0.15525  0.0000000E+00
 0.23575  0.0000000E+00
 0.31625  0.0000000E+00
 0.39675  0.0000000E+00
 0.47725  0.0000000E+00
 0.55775  0.0000000E+00
 0.63825  0.0000000E+00
 0.71875  0.0000000E+00
 0.79925  0.0000000E+00
 0.87975  0.0000000E+00
 0.96025  0.0000000E+00
 1.04075  0.0000000E+00
 1.12125  0.0000000E+00
 1.20175  0.0000000E+00
 1.28225  0.0000000E+00
 1.36275  0.0000000E+00
 1.44325  0.0000000E+00
 1.52375  0.0000000E+00
 1.60425  0.0000000E+00
 1.68475  0.0000000E+00
 1.76525  0.0000000E+00
 1.84575  0.0000000E+00
 1.92625  0.0000000E+00
 2.00675  0.0000000E+00
 2.08725  0.0000000E+00
 2.16775  0.0000000E+00
 2.24825  0.0000000E+00
 2.32875  0.0000000E+00
 2.40925  0.0000000E+00
 2.48975  0.0000000E+00
 2.57025  0.0000000E+00
 2.65075  0.0000000E+00
 2.73125  0.0000000E+00
 2.81175  0.0000000E+00
 2.89225  34.0617
 2.97275  35.029
 3.05325  36.1306
 3.13375  35.2724
 3.21425  35.516
 3.29475  34.2983
 3.37525  34.2854
 3.45575  34.1339
 3.53625  34.0129
 3.61675  33.1453
 3.69725  32.2351
 3.77775  32.7432
 3.85825  32.3926
 3.93875  32.5039
 4.01925  32.5289
 4.09975  32.2191
 4.18025  31.8559
 4.26075  32.4656
 4.34125  32.083
 4.42175  32.5191
 4.50225  32.4251
 4.58275  32.5449
 4.66325  32.396
 4.74375  32.302
 4.82425  32.2591
 4.90475  32.571
 4.98525  32.6497
 5.06575  32.6764
 5.14625  33.2662
 5.22675  33.5254
 5.30725  34.1789
 5.38775  34.068
 5.46825  34.2358
 5.54875  34.6597
 5.62925  35.1542
 5.70975  35.2119
 5.79025  35.5139
 5.87075  36.1085
 5.95125  45.5794
 6.03175  45.0198
 6.11225  36.9121
 6.19275  36.8402
 6.27325  37.2238
 6.35375  37.6898
 6.43425  38.3117
 6.51475  38.5251
 6.59525  39.1575
 6.67575  39.6674
 6.75625  40.3469
 6.83675  41.2559
 6.91725  41.3199
 6.99775  41.8
 7.07825  42.2067
 7.15875  42.7943
 7.23925  43.0726
 7.31975  43.23
 7.40025  43.4325
 7.48075  43.5626
 7.56125  43.5525
 7.64175  44.0877
 7.72225  43.7071
 7.80275  43.626
 7.88325  43.4121
 7.96375  43.0001
 8.04425  42.6023
 8.12475  42.2215
 8.20525  41.2726
 8.28575  40.277
 8.36625  39.3958
 8.44675  38.3965
 8.52725  37.4984
 8.60775  35.9088
 8.68825  34.9281
 8.76875  33.6503
 8.84925  32.698
 8.92975  31.4936
 9.01025  30.2129
 9.09075  29.4851
 9.17125  28.6485
 9.25175  27.8632
 9.33225  27.3818
 9.41275  26.7317
 9.49325  26.2434
 9.57375  25.7435
 9.65425  25.4065
 9.73475  25.1773
 9.81525  24.8534
 9.89575  24.4398
 9.97625  24.339
 10.0567  24.1395
 10.1373  23.8461
 10.2178  23.6904
 10.2982  23.4742
 10.3788  23.2377
 10.4593  23.1383
 10.5397  23.1543
 10.6203  22.9351
 10.7007  23.0091
 10.7813  22.6879
 10.8618  22.6579
 10.9422  22.6273
 11.0228  22.4909
 11.1033  22.5466
 11.1837  22.6
 11.2643  22.4173
 11.3447  22.4944
 11.4253  22.8596
 11.5058  22.966
 11.5862  28.1359
 11.6668  23.5604
 11.7473  22.5724
 11.8277  22.7797
 11.9083  23.3529
 11.9887  30.6041
 12.0693  27.1738
 12.1498  25.6439
 12.2302  22.6663
 12.3108  22.4948
 12.3913  22.4948
 12.4718  22.7117
 12.5523  22.6136
 12.6328  22.7753
 12.7133  22.9039
 12.7938  22.9917
 12.8742  23.3492
 12.9548  23.6685
 13.0353  24.0919
 13.1158  24.7743
 13.1963  25.618
 13.2768  26.3872
 13.3573  27.6179
 13.4378  28.4056
 13.5183  29.2355
 13.5988  29.5854
 13.6793  29.7042
 13.7598  29.6412
 13.8403  29.9773
 13.9208  41.7458
 14.0013  43.7694
 14.0818  28.5099
 14.1623  27.359
 14.2428  26.6457
 14.3233  26.0015
 14.4038  25.9511
 14.4843  25.7143
 14.5648  25.5189
 14.6453  25.2269
 14.7258  25.0898
 14.8063  25.0285
 14.8868  24.8585
 14.9673  24.8434
 15.0478  24.7517
 15.1283  25.1216
 15.2088  27.5299
 15.2892  24.799
 15.3698  24.5565
 15.4503  24.4877
 15.5308  24.5363
 15.6113  24.5328
 15.6918  24.6297
 15.7723  24.6104
 15.8528  24.5962
 15.9332  24.7341
 16.0138  24.6479
 16.0943  24.6323
 16.1748  24.7593
 16.2553  25.6731
 16.3358  24.9217
 16.4163  24.8866
 16.4967  24.672
 16.5773  24.693
 16.6578  24.5252
 16.7383  24.5021
 16.8188  24.5276
 16.8992  24.3014
 16.9798  24.3108
 17.0603  24.192
 17.1408  24.0817
 17.2213  24.0947
 17.3017  24.0101
 17.3823  24.0563
 17.4628  24.047
 17.5433  23.9129
 17.6238  23.9294
 17.7042  23.8827
 17.7847  23.7352
 17.8653  23.672
 17.9458  23.7837
 18.0263  24.7839
 18.1068  26.1017
 18.1872  24.0416
 18.2678  23.6208
 18.3483  23.6132
 18.4288  23.5895
 18.5093  23.6243
 18.5897  23.7252
 18.6703  23.5789
 18.7508  23.4821
 18.8313  23.4568
 18.9118  23.5067
 18.9922  23.3942
 19.0727  23.5413
 19.1533  23.4747
 19.2338  23.5761
 19.3143  23.678
 19.3948  23.747
 19.4752  23.6737
 19.5558  23.8099
 19.6363  24.4402
 19.7168  27.1635
 19.7973  27.7381
 19.8777  28.4991
 19.9582  24.6042
 20.0388  23.8296
 20.1193  23.6721
 20.1998  23.8021
 20.2803  23.6876
 20.3607  23.6981
 20.4413  23.8597
 20.5218  23.8182
 20.6023  23.9702
 20.6828  24.4358
 20.7632  27.5523
 20.8438  24.6007
 20.9243  24.0819
 21.0048  23.9335
 21.0853  24.0123
 21.1658  23.9595
 21.2462  24.0793
 21.3268  24.019
 21.4073  24.0442
 21.4878  24.023
 21.5683  24.0063
 21.6487  24.194
 21.7293  24.2402
 21.8098  24.1867
 21.8903  24.1899
 21.9708  24.3004
 22.0512  24.2992
 22.1318  24.4138
 22.2123  24.3632
 22.2928  24.5112
 22.3733  24.6122
 22.4538  24.6549
 22.5343  24.6848
 22.6148  24.9697
 22.6953  25.1264
 22.7758  25.3601
 22.8563  25.5556
 22.9367  26.1837
 22.9943  26.4852