File: test-data-xrd/xrd-map-34-ID-E/Data_0031.chi
F:\20151113_APS_34IDE\\Brian\Particle1\OCV\Data_0031.tif
2-Theta Angle (Degrees)
Intensity
       2000
 0.07475  0.0000000E+00
 0.15525  0.0000000E+00
 0.23575  0.0000000E+00
 0.31625  0.0000000E+00
 0.39675  0.0000000E+00
 0.47725  0.0000000E+00
 0.55775  0.0000000E+00
 0.63825  0.0000000E+00
 0.71875  0.0000000E+00
 0.79925  0.0000000E+00
 0.87975  0.0000000E+00
 0.96025  0.0000000E+00
 1.04075  0.0000000E+00
 1.12125  0.0000000E+00
 1.20175  0.0000000E+00
 1.28225  0.0000000E+00
 1.36275  0.0000000E+00
 1.44325  0.0000000E+00
 1.52375  0.0000000E+00
 1.60425  0.0000000E+00
 1.68475  0.0000000E+00
 1.76525  0.0000000E+00
 1.84575  0.0000000E+00
 1.92625  0.0000000E+00
 2.00675  0.0000000E+00
 2.08725  0.0000000E+00
 2.16775  0.0000000E+00
 2.24825  0.0000000E+00
 2.32875  0.0000000E+00
 2.40925  0.0000000E+00
 2.48975  0.0000000E+00
 2.57025  0.0000000E+00
 2.65075  0.0000000E+00
 2.73125  0.0000000E+00
 2.81175  0.0000000E+00
 2.89225  35.4157
 2.97275  35.608
 3.05325  37.8562
 3.13375  33.862
 3.21425  36.0402
 3.29475  35.8532
 3.37525  34.976
 3.45575  34.643
 3.53625  34.6128
 3.61675  33.8167
 3.69725  33.5446
 3.77775  33.285
 3.85825  32.99
 3.93875  32.4291
 4.01925  32.5387
 4.09975  32.7163
 4.18025  32.6873
 4.26075  32.7221
 4.34125  32.989
 4.42175  33.1794
 4.50225  33.4579
 4.58275  33.2956
 4.66325  33.5026
 4.74375  32.7867
 4.82425  33.0651
 4.90475  33.3027
 4.98525  33.3511
 5.06575  33.5697
 5.14625  34.0508
 5.22675  34.5344
 5.30725  34.6483
 5.38775  35.0572
 5.46825  34.9099
 5.54875  35.5072
 5.62925  35.5158
 5.70975  35.9585
 5.79025  36.2997
 5.87075  37.5011
 5.95125  53.4296
 6.03175  49.1358
 6.11225  37.8499
 6.19275  37.9574
 6.27325  38.1626
 6.35375  38.5519
 6.43425  39.0061
 6.51475  39.9302
 6.59525  40.1658
 6.67575  40.7258
 6.75625  41.4504
 6.83675  41.7982
 6.91725  42.2029
 6.99775  42.469
 7.07825  43.2753
 7.15875  43.5339
 7.23925  44.2583
 7.31975  44.4694
 7.40025  44.5303
 7.48075  44.5271
 7.56125  44.9429
 7.64175  44.5837
 7.72225  44.5704
 7.80275  44.5455
 7.88325  44.5785
 7.96375  44.2381
 8.04425  43.7337
 8.12475  43.093
 8.20525  42.2999
 8.28575  41.2726
 8.36625  40.4207
 8.44675  39.1358
 8.52725  38.1461
 8.60775  36.7954
 8.68825  35.4446
 8.76875  34.2386
 8.84925  33.2457
 8.92975  31.8867
 9.01025  30.9958
 9.09075  30.0769
 9.17125  29.0161
 9.25175  28.3786
 9.33225  27.6965
 9.41275  26.951
 9.49325  26.57
 9.57375  25.9405
 9.65425  25.7227
 9.73475  25.3097
 9.81525  25.0731
 9.89575  24.6593
 9.97625  24.5582
 10.0567  24.2555
 10.1373  24.1029
 10.2178  24.0196
 10.2982  23.7139
 10.3788  23.5504
 10.4593  23.3861
 10.5397  23.2569
 10.6203  23.1591
 10.7007  23.1218
 10.7813  23.014
 10.8618  22.7369
 10.9422  22.7041
 11.0228  22.5431
 11.1033  22.6406
 11.1837  22.5487
 11.2643  22.512
 11.3447  22.4679
 11.4253  22.6962
 11.5058  22.8302
 11.5862  25.6761
 11.6668  23.2535
 11.7473  22.5386
 11.8277  22.6887
 11.9083  22.5575
 11.9887  23.9862
 12.0693  24.4213
 12.1498  23.6667
 12.2302  22.5337
 12.3108  22.6501
 12.3913  22.5876
 12.4718  22.6821
 12.5523  22.7779
 12.6328  22.925
 12.7133  22.9801
 12.7938  23.2004
 12.8742  23.4087
 12.9548  23.9297
 13.0353  24.3524
 13.1158  24.9415
 13.1963  25.6566
 13.2768  26.8234
 13.3573  27.9262
 13.4378  28.7133
 13.5183  29.3528
 13.5988  29.7627
 13.6793  29.8427
 13.7598  29.6637
 13.8403  29.2183
 13.9208  30.657
 14.0013  29.3552
 14.0818  27.7366
 14.1623  27.0865
 14.2428  26.7314
 14.3233  26.3843
 14.4038  26.0328
 14.4843  25.7817
 14.5648  25.5652
 14.6453  25.4301
 14.7258  25.2072
 14.8063  25.2537
 14.8868  25.1556
 14.9673  25.1628
 15.0478  25.065
 15.1283  25.9534
 15.2088  38.1701
 15.2892  25.603
 15.3698  24.8484
 15.4503  24.5832
 15.5308  24.7057
 15.6113  24.6842
 15.6918  24.6943
 15.7723  24.6332
 15.8528  24.6851
 15.9332  24.6976
 16.0138  24.7656
 16.0943  24.8631
 16.1748  24.9009
 16.2553  25.2719
 16.3358  24.9566
 16.4163  24.8665
 16.4967  24.6741
 16.5773  24.6904
 16.6578  24.6265
 16.7383  24.5656
 16.8188  24.5444
 16.8992  24.5839
 16.9798  24.2758
 17.0603  24.2343
 17.1408  24.2506
 17.2213  24.2264
 17.3017  24.1797
 17.3823  24.0502
 17.4628  23.9227
 17.5433  24.0094
 17.6238  23.9828
 17.7042  23.8382
 17.7847  23.7707
 17.8653  23.7353
 17.9458  23.7669
 18.0263  24.2987
 18.1068  27.2345
 18.1872  24.2755
 18.2678  23.7024
 18.3483  23.6295
 18.4288  23.6815
 18.5093  23.6614
 18.5897  23.6036
 18.6703  23.537
 18.7508  23.3767
 18.8313  23.6093
 18.9118  23.512
 18.9922  23.4481
 19.0727  23.6271
 19.1533  23.6768
 19.2338  23.458
 19.3143  23.5932
 19.3948  23.6605
 19.4752  23.6886
 19.5558  23.7089
 19.6363  24.0631
 19.7168  26.3364
 19.7973  24.7332
 19.8777  24.8913
 19.9582  23.8889
 20.0388  23.7013
 20.1193  23.6988
 20.1998  23.6929
 20.2803  23.6972
 20.3607  23.6849
 20.4413  23.7935
 20.5218  23.6952
 20.6023  23.8368
 20.6828  24.1748
 20.7632  25.1854
 20.8438  23.9527
 20.9243  23.8893
 21.0048  23.8061
 21.0853  23.8253
 21.1658  23.7914
 21.2462  23.8948
 21.3268  23.9379
 21.4073  23.9303
 21.4878  24.0097
 21.5683  23.8951
 21.6487  24.0677
 21.7293  24.0885
 21.8098  24.0319
 21.8903  24.1345
 21.9708  24.196
 22.0512  24.3237
 22.1318  24.3663
 22.2123  24.3303
 22.2928  24.3853
 22.3733  24.6174
 22.4538  24.5622
 22.5343  24.7129
 22.6148  24.9107
 22.6953  25.0499
 22.7758  25.3064
 22.8563  25.5767
 22.9367  25.9795
 22.9943  26.2746