File: test-data-xrd/xrd-map-34-ID-E/Data_0128.chi
F:\20151113_APS_34IDE\\Brian\Particle1\OCV\Data_0128.tif
2-Theta Angle (Degrees)
Intensity
       2000
 0.07475  0.0000000E+00
 0.15525  0.0000000E+00
 0.23575  0.0000000E+00
 0.31625  0.0000000E+00
 0.39675  0.0000000E+00
 0.47725  0.0000000E+00
 0.55775  0.0000000E+00
 0.63825  0.0000000E+00
 0.71875  0.0000000E+00
 0.79925  0.0000000E+00
 0.87975  0.0000000E+00
 0.96025  0.0000000E+00
 1.04075  0.0000000E+00
 1.12125  0.0000000E+00
 1.20175  0.0000000E+00
 1.28225  0.0000000E+00
 1.36275  0.0000000E+00
 1.44325  0.0000000E+00
 1.52375  0.0000000E+00
 1.60425  0.0000000E+00
 1.68475  0.0000000E+00
 1.76525  0.0000000E+00
 1.84575  0.0000000E+00
 1.92625  0.0000000E+00
 2.00675  0.0000000E+00
 2.08725  0.0000000E+00
 2.16775  0.0000000E+00
 2.24825  0.0000000E+00
 2.32875  0.0000000E+00
 2.40925  0.0000000E+00
 2.48975  0.0000000E+00
 2.57025  0.0000000E+00
 2.65075  0.0000000E+00
 2.73125  0.0000000E+00
 2.81175  0.0000000E+00
 2.89225  34.1847
 2.97275  35.0976
 3.05325  35.3728
 3.13375  34.5961
 3.21425  35.2028
 3.29475  34.3999
 3.37525  33.9431
 3.45575  34.4304
 3.53625  33.5598
 3.61675  32.2214
 3.69725  32.4333
 3.77775  33.388
 3.85825  32.7246
 3.93875  32.3959
 4.01925  32.4511
 4.09975  32.2834
 4.18025  31.9677
 4.26075  32.1633
 4.34125  32.2234
 4.42175  32.228
 4.50225  32.0223
 4.58275  32.9295
 4.66325  32.3698
 4.74375  32.3772
 4.82425  32.5939
 4.90475  32.5947
 4.98525  32.7992
 5.06575  33.0798
 5.14625  33.6129
 5.22675  33.3655
 5.30725  34.0751
 5.38775  34.0888
 5.46825  34.2437
 5.54875  34.7652
 5.62925  35.1008
 5.70975  35.5622
 5.79025  35.5696
 5.87075  35.7692
 5.95125  38.752
 6.03175  39.0005
 6.11225  36.5137
 6.19275  37.0635
 6.27325  37.4943
 6.35375  37.7435
 6.43425  38.3362
 6.51475  39.0196
 6.59525  39.2827
 6.67575  40.1474
 6.75625  40.6596
 6.83675  41.1503
 6.91725  41.5417
 6.99775  42.2333
 7.07825  42.1679
 7.15875  42.8323
 7.23925  43.3786
 7.31975  43.6295
 7.40025  43.8433
 7.48075  44.1353
 7.56125  44.4278
 7.64175  44.5214
 7.72225  44.4074
 7.80275  44.1708
 7.88325  44.124
 7.96375  43.8841
 8.04425  43.3025
 8.12475  42.765
 8.20525  42.094
 8.28575  41.1799
 8.36625  40.2481
 8.44675  38.9327
 8.52725  37.7006
 8.60775  36.5406
 8.68825  35.1823
 8.76875  33.9742
 8.84925  32.7423
 8.92975  31.7174
 9.01025  30.3626
 9.09075  29.8266
 9.17125  28.9675
 9.25175  28.1417
 9.33225  27.2549
 9.41275  26.89
 9.49325  26.4648
 9.57375  25.8457
 9.65425  25.5983
 9.73475  25.2914
 9.81525  24.8529
 9.89575  24.5959
 9.97625  24.3718
 10.0567  24.1708
 10.1373  23.7355
 10.2178  23.787
 10.2982  23.6415
 10.3788  23.3388
 10.4593  23.2971
 10.5397  23.0648
 10.6203  22.8525
 10.7007  22.8185
 10.7813  22.8534
 10.8618  22.6696
 10.9422  22.6295
 11.0228  22.5439
 11.1033  22.4329
 11.1837  22.3898
 11.2643  22.2742
 11.3447  22.4982
 11.4253  22.6021
 11.5058  22.4343
 11.5862  23.2937
 11.6668  22.5406
 11.7473  22.304
 11.8277  22.3
 11.9083  22.3737
 11.9887  23.1577
 12.0693  22.8645
 12.1498  22.7268
 12.2302  22.3381
 12.3108  22.4377
 12.3913  22.2768
 12.4718  22.3539
 12.5523  22.6429
 12.6328  22.6487
 12.7133  22.7475
 12.7938  23.1175
 12.8742  23.4253
 12.9548  23.5726
 13.0353  24.0124
 13.1158  24.7697
 13.1963  25.4849
 13.2768  26.5759
 13.3573  27.6398
 13.4378  28.4812
 13.5183  29.1313
 13.5988  29.4779
 13.6793  29.4986
 13.7598  29.1573
 13.8403  28.9166
 13.9208  30.195
 14.0013  29.8071
 14.0818  27.2988
 14.1623  26.8704
 14.2428  26.4193
 14.3233  25.9526
 14.4038  25.7792
 14.4843  25.6237
 14.5648  25.5058
 14.6453  25.2861
 14.7258  25.0558
 14.8063  24.8816
 14.8868  24.7031
 14.9673  24.7237
 15.0478  24.7578
 15.1283  24.616
 15.2088  24.9819
 15.2892  24.4626
 15.3698  24.2936
 15.4503  24.2754
 15.5308  24.3313
 15.6113  24.3105
 15.6918  24.3082
 15.7723  24.3502
 15.8528  24.4202
 15.9332  24.3797
 16.0138  24.572
 16.0943  24.5789
 16.1748  24.7424
 16.2553  25.6862
 16.3358  24.6765
 16.4163  24.4573
 16.4967  24.5498
 16.5773  24.4998
 16.6578  24.4277
 16.7383  24.3859
 16.8188  24.3732
 16.8992  24.0809
 16.9798  24.1973
 17.0603  24.018
 17.1408  24.0448
 17.2213  24.1092
 17.3017  23.9442
 17.3823  23.8612
 17.4628  23.8953
 17.5433  23.7999
 17.6238  23.6803
 17.7042  23.614
 17.7847  23.4506
 17.8653  23.607
 17.9458  23.4979
 18.0263  23.5649
 18.1068  23.8188
 18.1872  23.4445
 18.2678  23.4233
 18.3483  23.4337
 18.4288  23.4531
 18.5093  23.4892
 18.5897  23.4021
 18.6703  23.2719
 18.7508  23.3287
 18.8313  23.2854
 18.9118  23.2818
 18.9922  23.2851
 19.0727  23.2814
 19.1533  23.3333
 19.2338  23.2794
 19.3143  23.2293
 19.3948  23.1992
 19.4752  23.3576
 19.5558  23.3264
 19.6363  23.563
 19.7168  24.3462
 19.7973  23.9162
 19.8777  24.1172
 19.9582  23.542
 20.0388  23.4203
 20.1193  23.6075
 20.1998  23.3811
 20.2803  23.4804
 20.3607  23.3516
 20.4413  23.4853
 20.5218  23.4381
 20.6023  23.6202
 20.6828  23.7956
 20.7632  24.3929
 20.8438  23.6724
 20.9243  23.7278
 21.0048  23.6919
 21.0853  23.6489
 21.1658  23.7085
 21.2462  23.7542
 21.3268  23.5722
 21.4073  23.6528
 21.4878  23.7079
 21.5683  23.7549
 21.6487  23.7034
 21.7293  23.8076
 21.8098  23.9652
 21.8903  23.999
 21.9708  23.9693
 22.0512  24.0103
 22.1318  24.2159
 22.2123  24.1405
 22.2928  24.208
 22.3733  24.3704
 22.4538  24.425
 22.5343  24.5556
 22.6148  24.6756
 22.6953  24.8501
 22.7758  25.0527
 22.8563  25.194
 22.9367  25.6145
 22.9943  25.9961