File: test-data-xrd/xrd-map-34-ID-E/Data_0059.chi
F:\20151113_APS_34IDE\\Brian\Particle1\OCV\Data_0059.tif
2-Theta Angle (Degrees)
Intensity
       2000
 0.07475  0.0000000E+00
 0.15525  0.0000000E+00
 0.23575  0.0000000E+00
 0.31625  0.0000000E+00
 0.39675  0.0000000E+00
 0.47725  0.0000000E+00
 0.55775  0.0000000E+00
 0.63825  0.0000000E+00
 0.71875  0.0000000E+00
 0.79925  0.0000000E+00
 0.87975  0.0000000E+00
 0.96025  0.0000000E+00
 1.04075  0.0000000E+00
 1.12125  0.0000000E+00
 1.20175  0.0000000E+00
 1.28225  0.0000000E+00
 1.36275  0.0000000E+00
 1.44325  0.0000000E+00
 1.52375  0.0000000E+00
 1.60425  0.0000000E+00
 1.68475  0.0000000E+00
 1.76525  0.0000000E+00
 1.84575  0.0000000E+00
 1.92625  0.0000000E+00
 2.00675  0.0000000E+00
 2.08725  0.0000000E+00
 2.16775  0.0000000E+00
 2.24825  0.0000000E+00
 2.32875  0.0000000E+00
 2.40925  0.0000000E+00
 2.48975  0.0000000E+00
 2.57025  0.0000000E+00
 2.65075  0.0000000E+00
 2.73125  0.0000000E+00
 2.81175  0.0000000E+00
 2.89225  35.8095
 2.97275  37.3234
 3.05325  35.0812
 3.13375  35.2191
 3.21425  35.5832
 3.29475  34.601
 3.37525  34.3503
 3.45575  34.5452
 3.53625  33.0054
 3.61675  33.4793
 3.69725  33.1328
 3.77775  33.2763
 3.85825  32.5822
 3.93875  32.8513
 4.01925  32.4469
 4.09975  32.2116
 4.18025  32.2318
 4.26075  31.5194
 4.34125  32.0805
 4.42175  32.5327
 4.50225  32.4135
 4.58275  32.4677
 4.66325  32.7894
 4.74375  32.8714
 4.82425  32.408
 4.90475  33.1523
 4.98525  32.7949
 5.06575  33.3954
 5.14625  33.5842
 5.22675  34.2543
 5.30725  33.9973
 5.38775  34.1393
 5.46825  34.9514
 5.54875  34.8616
 5.62925  35.3185
 5.70975  35.5433
 5.79025  35.9593
 5.87075  37.5827
 5.95125  58.8041
 6.03175  61.9847
 6.11225  38.1556
 6.19275  37.4293
 6.27325  37.745
 6.35375  37.7884
 6.43425  38.3664
 6.51475  38.9335
 6.59525  39.1899
 6.67575  40.0428
 6.75625  40.5524
 6.83675  41.342
 6.91725  41.3767
 6.99775  42.0598
 7.07825  42.5559
 7.15875  42.989
 7.23925  43.1623
 7.31975  43.4295
 7.40025  43.6573
 7.48075  43.776
 7.56125  44.3264
 7.64175  44.3631
 7.72225  43.9107
 7.80275  43.8786
 7.88325  43.7689
 7.96375  43.0638
 8.04425  43.041
 8.12475  42.3191
 8.20525  41.6922
 8.28575  40.5185
 8.36625  39.7813
 8.44675  38.7179
 8.52725  37.3855
 8.60775  35.9315
 8.68825  34.953
 8.76875  33.7811
 8.84925  32.3991
 8.92975  31.4992
 9.01025  30.4743
 9.09075  29.4728
 9.17125  28.6734
 9.25175  28.01
 9.33225  27.3199
 9.41275  26.8555
 9.49325  26.3737
 9.57375  26.1231
 9.65425  25.4357
 9.73475  25.2316
 9.81525  24.828
 9.89575  24.5222
 9.97625  24.2963
 10.0567  24.1771
 10.1373  23.9235
 10.2178  23.7747
 10.2982  23.676
 10.3788  23.4154
 10.4593  23.4131
 10.5397  23.0994
 10.6203  22.9955
 10.7007  22.9607
 10.7813  22.8732
 10.8618  22.8883
 10.9422  22.6378
 11.0228  22.619
 11.1033  22.5507
 11.1837  22.4833
 11.2643  22.3952
 11.3447  22.5164
 11.4253  22.7742
 11.5058  22.9263
 11.5862  27.5348
 11.6668  23.5214
 11.7473  22.6711
 11.8277  22.9074
 11.9083  23.0146
 11.9887  27.5034
 12.0693  26.7686
 12.1498  35.0712
 12.2302  23.32
 12.3108  22.8057
 12.3913  22.7679
 12.4718  22.7609
 12.5523  22.8634
 12.6328  22.8642
 12.7133  23.0127
 12.7938  23.1035
 12.8742  23.4383
 12.9548  23.632
 13.0353  24.1472
 13.1158  24.8819
 13.1963  25.6807
 13.2768  26.6806
 13.3573  27.7525
 13.4378  28.4613
 13.5183  29.4454
 13.5988  29.8993
 13.6793  29.5972
 13.7598  29.6819
 13.8403  29.9604
 13.9208  41.844
 14.0013  37.6774
 14.0818  28.3483
 14.1623  27.5339
 14.2428  26.6725
 14.3233  26.1858
 14.4038  26.1345
 14.4843  25.7688
 14.5648  25.6554
 14.6453  25.3847
 14.7258  25.2097
 14.8063  25.0962
 14.8868  24.9135
 14.9673  25.0229
 15.0478  25.035
 15.1283  25.2163
 15.2088  27.6005
 15.2892  24.8346
 15.3698  24.6892
 15.4503  24.4381
 15.5308  24.5564
 15.6113  24.5051
 15.6918  24.6504
 15.7723  24.7479
 15.8528  24.7685
 15.9332  24.7598
 16.0138  24.8269
 16.0943  24.8213
 16.1748  24.8617
 16.2553  26.5686
 16.3358  25.0298
 16.4163  24.8171
 16.4967  24.7011
 16.5773  24.708
 16.6578  24.7667
 16.7383  24.662
 16.8188  24.5334
 16.8992  24.407
 16.9798  24.2661
 17.0603  24.1522
 17.1408  24.2654
 17.2213  24.1952
 17.3017  24.2057
 17.3823  24.1407
 17.4628  24.0691
 17.5433  24.0008
 17.6238  24.0058
 17.7042  23.9691
 17.7847  23.9736
 17.8653  23.991
 17.9458  24.1126
 18.0263  25.4148
 18.1068  29.356
 18.1872  25.1026
 18.2678  23.9552
 18.3483  23.7382
 18.4288  23.7819
 18.5093  23.7262
 18.5897  23.751
 18.6703  23.5495
 18.7508  23.5042
 18.8313  23.5927
 18.9118  23.5835
 18.9922  23.6279
 19.0727  23.6842
 19.1533  23.7217
 19.2338  23.6018
 19.3143  23.8089
 19.3948  23.9518
 19.4752  24.1451
 19.5558  24.3197
 19.6363  25.7906
 19.7168  39.2345
 19.7973  27.4383
 19.8777  33.8434
 19.9582  25.0154
 20.0388  24.2037
 20.1193  24.0771
 20.1998  23.8427
 20.2803  23.8854
 20.3607  23.8538
 20.4413  23.8483
 20.5218  23.7121
 20.6023  23.9957
 20.6828  24.2542
 20.7632  26.1353
 20.8438  24.4376
 20.9243  24.2177
 21.0048  23.9168
 21.0853  23.983
 21.1658  24.0772
 21.2462  24.0606
 21.3268  24.0096
 21.4073  24.1989
 21.4878  24.1437
 21.5683  24.5997
 21.6487  24.2338
 21.7293  24.1981
 21.8098  24.2785
 21.8903  24.2804
 21.9708  24.391
 22.0512  24.4214
 22.1318  24.5327
 22.2123  24.4403
 22.2928  24.586
 22.3733  24.7139
 22.4538  24.6985
 22.5343  24.9597
 22.6148  25.0525
 22.6953  25.3061
 22.7758  25.3599
 22.8563  25.7241
 22.9367  26.1758
 22.9943  26.5699