File: test-data-xrd/xrd-map-34-ID-E/Data_0142.chi
F:\20151113_APS_34IDE\\Brian\Particle1\OCV\Data_0142.tif
2-Theta Angle (Degrees)
Intensity
       2000
 0.07475  0.0000000E+00
 0.15525  0.0000000E+00
 0.23575  0.0000000E+00
 0.31625  0.0000000E+00
 0.39675  0.0000000E+00
 0.47725  0.0000000E+00
 0.55775  0.0000000E+00
 0.63825  0.0000000E+00
 0.71875  0.0000000E+00
 0.79925  0.0000000E+00
 0.87975  0.0000000E+00
 0.96025  0.0000000E+00
 1.04075  0.0000000E+00
 1.12125  0.0000000E+00
 1.20175  0.0000000E+00
 1.28225  0.0000000E+00
 1.36275  0.0000000E+00
 1.44325  0.0000000E+00
 1.52375  0.0000000E+00
 1.60425  0.0000000E+00
 1.68475  0.0000000E+00
 1.76525  0.0000000E+00
 1.84575  0.0000000E+00
 1.92625  0.0000000E+00
 2.00675  0.0000000E+00
 2.08725  0.0000000E+00
 2.16775  0.0000000E+00
 2.24825  0.0000000E+00
 2.32875  0.0000000E+00
 2.40925  0.0000000E+00
 2.48975  0.0000000E+00
 2.57025  0.0000000E+00
 2.65075  0.0000000E+00
 2.73125  0.0000000E+00
 2.81175  0.0000000E+00
 2.89225  34.56
 2.97275  35.8125
 3.05325  35.6684
 3.13375  35.7805
 3.21425  35.4024
 3.29475  34.4776
 3.37525  33.8201
 3.45575  34.0445
 3.53625  34.1871
 3.61675  33.3429
 3.69725  33.1208
 3.77775  33.2159
 3.85825  32.7332
 3.93875  32.0956
 4.01925  32.3334
 4.09975  32.2064
 4.18025  31.9802
 4.26075  32.0645
 4.34125  32.5249
 4.42175  32.4563
 4.50225  32.4769
 4.58275  32.6704
 4.66325  32.8451
 4.74375  32.2856
 4.82425  32.7856
 4.90475  32.5175
 4.98525  32.9271
 5.06575  33.191
 5.14625  33.3941
 5.22675  33.6237
 5.30725  34.1657
 5.38775  34.4202
 5.46825  34.3072
 5.54875  34.4855
 5.62925  34.7888
 5.70975  35.4779
 5.79025  35.537
 5.87075  35.2649
 5.95125  36.2365
 6.03175  36.5544
 6.11225  36.9444
 6.19275  36.8011
 6.27325  37.2815
 6.35375  37.9835
 6.43425  38.6163
 6.51475  39.1238
 6.59525  39.8053
 6.67575  40.2978
 6.75625  40.7651
 6.83675  41.4061
 6.91725  42.0945
 6.99775  42.3332
 7.07825  42.7828
 7.15875  43.3607
 7.23925  43.3864
 7.31975  43.8044
 7.40025  44.0445
 7.48075  44.4972
 7.56125  44.4236
 7.64175  44.5518
 7.72225  44.6856
 7.80275  44.3236
 7.88325  44.1624
 7.96375  43.8243
 8.04425  43.4039
 8.12475  42.591
 8.20525  41.8968
 8.28575  41.3084
 8.36625  40.1918
 8.44675  39.0437
 8.52725  37.673
 8.60775  36.5725
 8.68825  35.4565
 8.76875  33.8664
 8.84925  32.925
 8.92975  31.5283
 9.01025  30.5196
 9.09075  30.0897
 9.17125  28.9575
 9.25175  28.0463
 9.33225  27.438
 9.41275  26.7586
 9.49325  26.3698
 9.57375  25.8769
 9.65425  25.5004
 9.73475  24.9309
 9.81525  24.9068
 9.89575  24.5494
 9.97625  24.1873
 10.0567  24.0017
 10.1373  23.8307
 10.2178  23.6599
 10.2982  23.4127
 10.3788  23.2339
 10.4593  23.1216
 10.5397  23.0355
 10.6203  22.8869
 10.7007  22.8363
 10.7813  22.6238
 10.8618  22.7325
 10.9422  22.5107
 11.0228  22.3813
 11.1033  22.4134
 11.1837  22.2967
 11.2643  22.1916
 11.3447  22.252
 11.4253  22.4456
 11.5058  22.4447
 11.5862  22.5223
 11.6668  22.3647
 11.7473  22.1504
 11.8277  22.2451
 11.9083  22.3051
 11.9887  22.4839
 12.0693  22.3632
 12.1498  22.421
 12.2302  22.0864
 12.3108  22.4708
 12.3913  22.559
 12.4718  22.3932
 12.5523  22.5134
 12.6328  22.5908
 12.7133  22.7222
 12.7938  22.9874
 12.8742  23.2071
 12.9548  23.4774
 13.0353  24.0017
 13.1158  24.7577
 13.1963  25.4434
 13.2768  26.4853
 13.3573  27.585
 13.4378  28.4442
 13.5183  29.2027
 13.5988  29.4833
 13.6793  29.5439
 13.7598  29.0302
 13.8403  28.6638
 13.9208  28.528
 14.0013  28.0375
 14.0818  27.2347
 14.1623  26.7221
 14.2428  26.2362
 14.3233  25.9152
 14.4038  25.7434
 14.4843  25.4255
 14.5648  25.248
 14.6453  25.1128
 14.7258  24.9854
 14.8063  24.9087
 14.8868  24.5803
 14.9673  24.5874
 15.0478  24.4326
 15.1283  24.3383
 15.2088  24.5044
 15.2892  24.2772
 15.3698  24.3513
 15.4503  24.2688
 15.5308  24.2688
 15.6113  24.2821
 15.6918  24.3516
 15.7723  24.3693
 15.8528  24.5667
 15.9332  24.3868
 16.0138  24.5194
 16.0943  24.5089
 16.1748  24.662
 16.2553  25.1577
 16.3358  24.7454
 16.4163  24.4361
 16.4967  24.5847
 16.5773  24.4784
 16.6578  24.3593
 16.7383  24.2444
 16.8188  24.0933
 16.8992  24.1159
 16.9798  24.1719
 17.0603  23.9102
 17.1408  23.9536
 17.2213  24.0228
 17.3017  23.9139
 17.3823  23.7853
 17.4628  23.6465
 17.5433  23.6185
 17.6238  23.6462
 17.7042  23.6498
 17.7847  23.6055
 17.8653  23.5358
 17.9458  23.3393
 18.0263  23.4288
 18.1068  23.5712
 18.1872  23.2698
 18.2678  23.2399
 18.3483  23.3625
 18.4288  23.4176
 18.5093  23.2197
 18.5897  23.2815
 18.6703  23.2162
 18.7508  23.2254
 18.8313  23.2357
 18.9118  23.2961
 18.9922  23.2225
 19.0727  23.3255
 19.1533  23.1552
 19.2338  23.2195
 19.3143  23.3595
 19.3948  23.3514
 19.4752  23.2832
 19.5558  23.2025
 19.6363  23.2387
 19.7168  23.5477
 19.7973  23.3977
 19.8777  23.6337
 19.9582  23.378
 20.0388  23.3078
 20.1193  23.3349
 20.1998  23.3305
 20.2803  23.4273
 20.3607  23.3551
 20.4413  23.4246
 20.5218  23.4241
 20.6023  23.4868
 20.6828  23.6374
 20.7632  23.7678
 20.8438  23.7246
 20.9243  23.697
 21.0048  23.5717
 21.0853  23.613
 21.1658  23.4758
 21.2462  23.5489
 21.3268  23.6071
 21.4073  23.5369
 21.4878  23.7733
 21.5683  23.68
 21.6487  23.7999
 21.7293  23.8911
 21.8098  23.9969
 21.8903  23.9166
 21.9708  23.8444
 22.0512  24.111
 22.1318  24.0778
 22.2123  24.0795
 22.2928  24.1512
 22.3733  24.3274
 22.4538  24.3579
 22.5343  24.5266
 22.6148  24.6116
 22.6953  24.8379
 22.7758  24.7978
 22.8563  25.2381
 22.9367  25.5835
 22.9943  25.7539