File: test-data-xrd/xrd-map-34-ID-E/Data_0108.chi
F:\20151113_APS_34IDE\\Brian\Particle1\OCV\Data_0108.tif
2-Theta Angle (Degrees)
Intensity
       2000
 0.07475  0.0000000E+00
 0.15525  0.0000000E+00
 0.23575  0.0000000E+00
 0.31625  0.0000000E+00
 0.39675  0.0000000E+00
 0.47725  0.0000000E+00
 0.55775  0.0000000E+00
 0.63825  0.0000000E+00
 0.71875  0.0000000E+00
 0.79925  0.0000000E+00
 0.87975  0.0000000E+00
 0.96025  0.0000000E+00
 1.04075  0.0000000E+00
 1.12125  0.0000000E+00
 1.20175  0.0000000E+00
 1.28225  0.0000000E+00
 1.36275  0.0000000E+00
 1.44325  0.0000000E+00
 1.52375  0.0000000E+00
 1.60425  0.0000000E+00
 1.68475  0.0000000E+00
 1.76525  0.0000000E+00
 1.84575  0.0000000E+00
 1.92625  0.0000000E+00
 2.00675  0.0000000E+00
 2.08725  0.0000000E+00
 2.16775  0.0000000E+00
 2.24825  0.0000000E+00
 2.32875  0.0000000E+00
 2.40925  0.0000000E+00
 2.48975  0.0000000E+00
 2.57025  0.0000000E+00
 2.65075  0.0000000E+00
 2.73125  0.0000000E+00
 2.81175  0.0000000E+00
 2.89225  35.836
 2.97275  35.0598
 3.05325  35.5137
 3.13375  36.8202
 3.21425  35.8913
 3.29475  35.7291
 3.37525  34.1605
 3.45575  34.741
 3.53625  33.6363
 3.61675  33.2273
 3.69725  33.3777
 3.77775  33.9471
 3.85825  33.4077
 3.93875  32.9623
 4.01925  32.9781
 4.09975  32.2244
 4.18025  32.6978
 4.26075  32.8152
 4.34125  32.165
 4.42175  32.8022
 4.50225  32.7591
 4.58275  32.5934
 4.66325  32.8998
 4.74375  32.0195
 4.82425  32.5405
 4.90475  32.6173
 4.98525  32.843
 5.06575  33.3279
 5.14625  33.7265
 5.22675  33.8472
 5.30725  34.2238
 5.38775  34.3438
 5.46825  34.5298
 5.54875  34.5896
 5.62925  35.0104
 5.70975  35.1318
 5.79025  35.4797
 5.87075  35.9163
 5.95125  38.1893
 6.03175  37.5626
 6.11225  36.5904
 6.19275  36.9018
 6.27325  37.2806
 6.35375  38.0771
 6.43425  38.0615
 6.51475  39.183
 6.59525  39.5349
 6.67575  39.9626
 6.75625  40.6363
 6.83675  41.1838
 6.91725  41.5611
 6.99775  41.9616
 7.07825  42.3191
 7.15875  42.8097
 7.23925  43.2976
 7.31975  43.2468
 7.40025  43.5773
 7.48075  43.8389
 7.56125  43.9917
 7.64175  44.2182
 7.72225  43.8798
 7.80275  43.9031
 7.88325  43.7792
 7.96375  42.9397
 8.04425  43.266
 8.12475  42.3575
 8.20525  41.4078
 8.28575  40.3815
 8.36625  39.8229
 8.44675  38.2762
 8.52725  37.1244
 8.60775  36.0163
 8.68825  34.8792
 8.76875  33.4523
 8.84925  32.2767
 8.92975  31.5327
 9.01025  30.2047
 9.09075  29.2988
 9.17125  28.4515
 9.25175  27.7649
 9.33225  27.1809
 9.41275  26.4658
 9.49325  25.9548
 9.57375  25.506
 9.65425  25.1624
 9.73475  24.9937
 9.81525  24.3321
 9.89575  24.2157
 9.97625  23.9159
 10.0567  23.7769
 10.1373  24.2128
 10.2178  23.383
 10.2982  23.2862
 10.3788  22.8497
 10.4593  22.752
 10.5397  22.8687
 10.6203  22.6483
 10.7007  22.5344
 10.7813  22.3322
 10.8618  22.1605
 10.9422  22.2164
 11.0228  22.1891
 11.1033  22.318
 11.1837  22.1784
 11.2643  22.1428
 11.3447  22.1813
 11.4253  22.2724
 11.5058  22.2826
 11.5862  23.7091
 11.6668  22.2084
 11.7473  22.0689
 11.8277  22.1624
 11.9083  22.2061
 11.9887  22.281
 12.0693  22.3805
 12.1498  22.3612
 12.2302  22.0456
 12.3108  22.1577
 12.3913  22.1373
 12.4718  22.3046
 12.5523  22.3779
 12.6328  22.2894
 12.7133  22.556
 12.7938  22.738
 12.8742  23.056
 12.9548  23.3565
 13.0353  23.8243
 13.1158  24.4938
 13.1963  25.1518
 13.2768  26.245
 13.3573  27.1041
 13.4378  28.0456
 13.5183  28.97
 13.5988  29.2197
 13.6793  29.3337
 13.7598  29.0498
 13.8403  28.6817
 13.9208  31.4821
 14.0013  30.7644
 14.0818  27.1874
 14.1623  26.6715
 14.2428  26.1146
 14.3233  25.9784
 14.4038  25.7684
 14.4843  25.3367
 14.5648  25.1835
 14.6453  24.864
 14.7258  24.758
 14.8063  24.7935
 14.8868  24.4693
 14.9673  24.3758
 15.0478  24.5005
 15.1283  24.4511
 15.2088  24.8807
 15.2892  24.3863
 15.3698  24.18
 15.4503  24.1766
 15.5308  24.1665
 15.6113  24.1833
 15.6918  24.2003
 15.7723  24.1857
 15.8528  24.3435
 15.9332  24.223
 16.0138  24.3851
 16.0943  24.4979
 16.1748  24.385
 16.2553  24.9533
 16.3358  24.5946
 16.4163  24.2994
 16.4967  24.2405
 16.5773  24.2096
 16.6578  24.1482
 16.7383  24.2603
 16.8188  24.0455
 16.8992  23.9308
 16.9798  23.9735
 17.0603  23.8659
 17.1408  23.7721
 17.2213  23.8412
 17.3017  23.676
 17.3823  23.6369
 17.4628  23.5931
 17.5433  23.4722
 17.6238  23.482
 17.7042  23.3574
 17.7847  23.3878
 17.8653  23.2946
 17.9458  23.2994
 18.0263  23.3971
 18.1068  23.7506
 18.1872  23.3807
 18.2678  23.1975
 18.3483  23.1644
 18.4288  23.1803
 18.5093  23.1156
 18.5897  23.1429
 18.6703  23.1199
 18.7508  23.0492
 18.8313  23.0676
 18.9118  23.005
 18.9922  22.9893
 19.0727  23.0242
 19.1533  23.1138
 19.2338  22.9943
 19.3143  23.1351
 19.3948  23.112
 19.4752  23.1622
 19.5558  23.2322
 19.6363  23.3203
 19.7168  24.1028
 19.7973  23.7433
 19.8777  24.1656
 19.9582  23.3296
 20.0388  23.2165
 20.1193  23.2386
 20.1998  23.2468
 20.2803  23.3198
 20.3607  23.2397
 20.4413  23.3021
 20.5218  23.2035
 20.6023  23.512
 20.6828  23.4866
 20.7632  24.017
 20.8438  23.4659
 20.9243  23.5217
 21.0048  23.4802
 21.0853  23.3972
 21.1658  23.4051
 21.2462  23.444
 21.3268  23.5025
 21.4073  23.6645
 21.4878  23.6023
 21.5683  23.5301
 21.6487  23.7234
 21.7293  23.6941
 21.8098  23.8126
 21.8903  23.745
 21.9708  23.8293
 22.0512  23.8334
 22.1318  23.8567
 22.2123  23.8491
 22.2928  24.0243
 22.3733  24.2347
 22.4538  24.2304
 22.5343  24.2136
 22.6148  24.4289
 22.6953  24.6524
 22.7758  24.7601
 22.8563  25.0644
 22.9367  25.5425
 22.9943  25.7986