File: test-data-xrd/xrd-map-34-ID-E/Data_0011.chi
F:\20151113_APS_34IDE\\Brian\Particle1\OCV\Data_0011.tif
2-Theta Angle (Degrees)
Intensity
       2000
 0.07475  0.0000000E+00
 0.15525  0.0000000E+00
 0.23575  0.0000000E+00
 0.31625  0.0000000E+00
 0.39675  0.0000000E+00
 0.47725  0.0000000E+00
 0.55775  0.0000000E+00
 0.63825  0.0000000E+00
 0.71875  0.0000000E+00
 0.79925  0.0000000E+00
 0.87975  0.0000000E+00
 0.96025  0.0000000E+00
 1.04075  0.0000000E+00
 1.12125  0.0000000E+00
 1.20175  0.0000000E+00
 1.28225  0.0000000E+00
 1.36275  0.0000000E+00
 1.44325  0.0000000E+00
 1.52375  0.0000000E+00
 1.60425  0.0000000E+00
 1.68475  0.0000000E+00
 1.76525  0.0000000E+00
 1.84575  0.0000000E+00
 1.92625  0.0000000E+00
 2.00675  0.0000000E+00
 2.08725  0.0000000E+00
 2.16775  0.0000000E+00
 2.24825  0.0000000E+00
 2.32875  0.0000000E+00
 2.40925  0.0000000E+00
 2.48975  0.0000000E+00
 2.57025  0.0000000E+00
 2.65075  0.0000000E+00
 2.73125  0.0000000E+00
 2.81175  0.0000000E+00
 2.89225  35.7734
 2.97275  34.9382
 3.05325  34.4651
 3.13375  34.9755
 3.21425  35.6747
 3.29475  34.7645
 3.37525  33.826
 3.45575  34.1534
 3.53625  34.5058
 3.61675  34.0661
 3.69725  33.1775
 3.77775  33.1591
 3.85825  33.0394
 3.93875  33.0485
 4.01925  32.545
 4.09975  32.6732
 4.18025  32.7041
 4.26075  32.4033
 4.34125  32.2539
 4.42175  32.4554
 4.50225  32.3359
 4.58275  31.9956
 4.66325  32.2788
 4.74375  32.777
 4.82425  33.114
 4.90475  32.9901
 4.98525  32.9615
 5.06575  33.5323
 5.14625  34.0274
 5.22675  34.0662
 5.30725  34.7127
 5.38775  35.028
 5.46825  34.8305
 5.54875  35.2417
 5.62925  35.6799
 5.70975  35.6406
 5.79025  35.8299
 5.87075  35.9693
 5.95125  37.6177
 6.03175  37.7151
 6.11225  36.8959
 6.19275  37.1347
 6.27325  37.5337
 6.35375  38.0347
 6.43425  38.9919
 6.51475  39.5287
 6.59525  40.234
 6.67575  40.3836
 6.75625  41.399
 6.83675  41.728
 6.91725  42.4722
 6.99775  42.5612
 7.07825  43.0655
 7.15875  43.3838
 7.23925  43.6637
 7.31975  44.2008
 7.40025  44.5805
 7.48075  44.4395
 7.56125  44.9525
 7.64175  44.9072
 7.72225  44.8519
 7.80275  44.7195
 7.88325  44.3356
 7.96375  44.1666
 8.04425  43.7517
 8.12475  43.0054
 8.20525  42.4383
 8.28575  41.6613
 8.36625  40.3329
 8.44675  39.062
 8.52725  38.0446
 8.60775  36.8499
 8.68825  35.6866
 8.76875  34.2636
 8.84925  33.0426
 8.92975  32.1591
 9.01025  30.9754
 9.09075  30.0892
 9.17125  29.2754
 9.25175  28.2492
 9.33225  27.7249
 9.41275  26.9843
 9.49325  26.6766
 9.57375  26.1143
 9.65425  25.8989
 9.73475  25.1432
 9.81525  25.0515
 9.89575  24.7606
 9.97625  24.4982
 10.0567  24.5251
 10.1373  24.0228
 10.2178  23.8836
 10.2982  23.629
 10.3788  23.5282
 10.4593  23.4676
 10.5397  23.246
 10.6203  22.9533
 10.7007  23.0966
 10.7813  22.9584
 10.8618  22.9308
 10.9422  22.5732
 11.0228  22.7302
 11.1033  22.4401
 11.1837  22.684
 11.2643  22.4925
 11.3447  22.3356
 11.4253  22.6274
 11.5058  22.4971
 11.5862  23.7021
 11.6668  22.6432
 11.7473  22.4663
 11.8277  22.4166
 11.9083  22.3988
 11.9887  22.5381
 12.0693  22.738
 12.1498  22.6733
 12.2302  22.4069
 12.3108  22.587
 12.3913  22.718
 12.4718  22.5612
 12.5523  22.6958
 12.6328  22.8778
 12.7133  23.1564
 12.7938  23.2257
 12.8742  23.2981
 12.9548  23.7783
 13.0353  24.1396
 13.1158  24.9161
 13.1963  25.7151
 13.2768  26.7849
 13.3573  27.9705
 13.4378  28.7002
 13.5183  29.2813
 13.5988  29.8048
 13.6793  29.8207
 13.7598  29.5389
 13.8403  28.8942
 13.9208  28.8068
 14.0013  28.2132
 14.0818  27.2812
 14.1623  26.9076
 14.2428  26.5433
 14.3233  26.171
 14.4038  26.0707
 14.4843  25.6583
 14.5648  25.5712
 14.6453  25.426
 14.7258  25.1759
 14.8063  25.0336
 14.8868  25.0442
 14.9673  24.793
 15.0478  24.7576
 15.1283  24.8739
 15.2088  25.8699
 15.2892  24.7694
 15.3698  24.6126
 15.4503  24.4691
 15.5308  24.5846
 15.6113  24.5592
 15.6918  24.6261
 15.7723  24.7573
 15.8528  24.4546
 15.9332  24.6155
 16.0138  24.5445
 16.0943  24.6158
 16.1748  24.8509
 16.2553  25.1883
 16.3358  24.8892
 16.4163  24.6659
 16.4967  24.7042
 16.5773  24.5351
 16.6578  24.6035
 16.7383  24.6254
 16.8188  24.4382
 16.8992  24.4337
 16.9798  24.3177
 17.0603  24.1821
 17.1408  24.2773
 17.2213  24.227
 17.3017  24.1187
 17.3823  23.975
 17.4628  24.0093
 17.5433  24.0086
 17.6238  23.8473
 17.7042  23.8241
 17.7847  23.8179
 17.8653  23.6347
 17.9458  23.7709
 18.0263  23.9167
 18.1068  24.2325
 18.1872  23.6003
 18.2678  23.53
 18.3483  23.5829
 18.4288  23.57
 18.5093  23.462
 18.5897  23.4864
 18.6703  23.4217
 18.7508  23.459
 18.8313  23.517
 18.9118  23.5218
 18.9922  23.488
 19.0727  23.6185
 19.1533  23.5005
 19.2338  23.4935
 19.3143  23.5468
 19.3948  23.5424
 19.4752  23.6651
 19.5558  23.6089
 19.6363  23.5151
 19.7168  23.872
 19.7973  23.7424
 19.8777  23.8961
 19.9582  23.5101
 20.0388  23.6705
 20.1193  23.6218
 20.1998  23.6613
 20.2803  23.667
 20.3607  23.7065
 20.4413  23.6165
 20.5218  23.6232
 20.6023  23.7618
 20.6828  23.8077
 20.7632  23.9394
 20.8438  23.6362
 20.9243  23.8066
 21.0048  23.7901
 21.0853  23.8122
 21.1658  23.8549
 21.2462  23.8879
 21.3268  23.8465
 21.4073  23.7826
 21.4878  23.981
 21.5683  23.9742
 21.6487  24.025
 21.7293  24.1135
 21.8098  24.1038
 21.8903  24.0658
 21.9708  24.1285
 22.0512  24.2574
 22.1318  24.2873
 22.2123  24.3509
 22.2928  24.4506
 22.3733  24.4539
 22.4538  24.5402
 22.5343  24.6506
 22.6148  24.8981
 22.6953  25.1683
 22.7758  25.1845
 22.8563  25.519
 22.9367  25.7697
 22.9943  26.0791