File: test-data-xrd/xrd-map-34-ID-E/Data_0010.chi
F:\20151113_APS_34IDE\\Brian\Particle1\OCV\Data_0010.tif
2-Theta Angle (Degrees)
Intensity
       2000
 0.07475  0.0000000E+00
 0.15525  0.0000000E+00
 0.23575  0.0000000E+00
 0.31625  0.0000000E+00
 0.39675  0.0000000E+00
 0.47725  0.0000000E+00
 0.55775  0.0000000E+00
 0.63825  0.0000000E+00
 0.71875  0.0000000E+00
 0.79925  0.0000000E+00
 0.87975  0.0000000E+00
 0.96025  0.0000000E+00
 1.04075  0.0000000E+00
 1.12125  0.0000000E+00
 1.20175  0.0000000E+00
 1.28225  0.0000000E+00
 1.36275  0.0000000E+00
 1.44325  0.0000000E+00
 1.52375  0.0000000E+00
 1.60425  0.0000000E+00
 1.68475  0.0000000E+00
 1.76525  0.0000000E+00
 1.84575  0.0000000E+00
 1.92625  0.0000000E+00
 2.00675  0.0000000E+00
 2.08725  0.0000000E+00
 2.16775  0.0000000E+00
 2.24825  0.0000000E+00
 2.32875  0.0000000E+00
 2.40925  0.0000000E+00
 2.48975  0.0000000E+00
 2.57025  0.0000000E+00
 2.65075  0.0000000E+00
 2.73125  0.0000000E+00
 2.81175  0.0000000E+00
 2.89225  34.8368
 2.97275  35.0897
 3.05325  35.8397
 3.13375  35.66
 3.21425  35.6734
 3.29475  36.2267
 3.37525  35.4661
 3.45575  34.8918
 3.53625  34.0641
 3.61675  33.7529
 3.69725  33.5935
 3.77775  33.0878
 3.85825  32.5884
 3.93875  32.7345
 4.01925  33.3375
 4.09975  32.489
 4.18025  32.4561
 4.26075  32.3461
 4.34125  32.4787
 4.42175  32.6366
 4.50225  32.9712
 4.58275  32.979
 4.66325  33.4643
 4.74375  32.887
 4.82425  32.8658
 4.90475  33.3058
 4.98525  33.1665
 5.06575  33.648
 5.14625  34.1196
 5.22675  34.2755
 5.30725  34.5904
 5.38775  34.6464
 5.46825  35.1201
 5.54875  35.3209
 5.62925  35.4835
 5.70975  35.7586
 5.79025  35.9436
 5.87075  35.9259
 5.95125  37.9524
 6.03175  38.2346
 6.11225  37.1046
 6.19275  37.4435
 6.27325  37.9247
 6.35375  38.2058
 6.43425  38.8518
 6.51475  39.2901
 6.59525  39.9733
 6.67575  40.5193
 6.75625  40.9854
 6.83675  41.8581
 6.91725  42.4659
 6.99775  42.6934
 7.07825  42.8349
 7.15875  43.3495
 7.23925  44.0795
 7.31975  44.184
 7.40025  44.3571
 7.48075  44.5945
 7.56125  44.8826
 7.64175  44.8346
 7.72225  44.5239
 7.80275  44.2799
 7.88325  44.2995
 7.96375  43.9604
 8.04425  43.504
 8.12475  43.1866
 8.20525  42.2289
 8.28575  41.3299
 8.36625  40.3405
 8.44675  39.1692
 8.52725  37.9745
 8.60775  36.8893
 8.68825  35.4988
 8.76875  34.2505
 8.84925  33.1181
 8.92975  32.0482
 9.01025  30.9525
 9.09075  29.973
 9.17125  29.3995
 9.25175  28.4915
 9.33225  27.932
 9.41275  27.4545
 9.49325  26.77
 9.57375  26.0915
 9.65425  25.6595
 9.73475  25.4411
 9.81525  25.1216
 9.89575  24.6161
 9.97625  24.5436
 10.0567  24.2806
 10.1373  24.0495
 10.2178  23.8434
 10.2982  23.6412
 10.3788  23.5383
 10.4593  23.2606
 10.5397  23.3122
 10.6203  23.079
 10.7007  23.0368
 10.7813  22.9793
 10.8618  22.883
 10.9422  22.7364
 11.0228  22.7721
 11.1033  22.6736
 11.1837  22.781
 11.2643  22.44
 11.3447  22.6143
 11.4253  22.8792
 11.5058  22.9487
 11.5862  26.8227
 11.6668  23.3151
 11.7473  22.5999
 11.8277  22.6185
 11.9083  22.4948
 11.9887  22.6629
 12.0693  22.7298
 12.1498  22.9118
 12.2302  22.5227
 12.3108  22.6522
 12.3913  22.6682
 12.4718  22.7153
 12.5523  22.9948
 12.6328  22.8776
 12.7133  22.9193
 12.7938  23.0704
 12.8742  23.4231
 12.9548  23.6842
 13.0353  24.1964
 13.1158  25.0397
 13.1963  25.7522
 13.2768  26.7565
 13.3573  27.7271
 13.4378  28.5619
 13.5183  29.4216
 13.5988  29.8252
 13.6793  29.7509
 13.7598  29.3792
 13.8403  29.0542
 13.9208  29.5386
 14.0013  29.7043
 14.0818  27.4384
 14.1623  27.0321
 14.2428  26.6594
 14.3233  26.2123
 14.4038  26.0413
 14.4843  25.7418
 14.5648  25.5346
 14.6453  25.3854
 14.7258  25.2101
 14.8063  25.0759
 14.8868  25.0212
 14.9673  24.8877
 15.0478  24.865
 15.1283  24.8967
 15.2088  26.0509
 15.2892  24.9685
 15.3698  24.6804
 15.4503  24.5234
 15.5308  24.6748
 15.6113  24.5791
 15.6918  24.5742
 15.7723  24.7012
 15.8528  24.6869
 15.9332  24.698
 16.0138  24.7177
 16.0943  24.6918
 16.1748  24.8719
 16.2553  25.2509
 16.3358  24.9354
 16.4163  24.8196
 16.4967  24.6832
 16.5773  24.6101
 16.6578  24.5038
 16.7383  24.6203
 16.8188  24.4812
 16.8992  24.4305
 16.9798  24.3573
 17.0603  24.082
 17.1408  24.3545
 17.2213  24.148
 17.3017  24.0482
 17.3823  24.0706
 17.4628  24.029
 17.5433  23.9809
 17.6238  23.8129
 17.7042  23.863
 17.7847  23.8017
 17.8653  23.768
 17.9458  23.7044
 18.0263  23.735
 18.1068  23.9878
 18.1872  23.6411
 18.2678  23.5444
 18.3483  23.6325
 18.4288  23.6528
 18.5093  23.5561
 18.5897  23.6169
 18.6703  23.4299
 18.7508  23.5292
 18.8313  23.5487
 18.9118  23.4257
 18.9922  23.516
 19.0727  23.5836
 19.1533  23.5816
 19.2338  23.5588
 19.3143  23.7009
 19.3948  23.5686
 19.4752  23.5887
 19.5558  23.631
 19.6363  23.8661
 19.7168  24.5064
 19.7973  24.3323
 19.8777  24.4855
 19.9582  23.7604
 20.0388  23.6619
 20.1193  23.6656
 20.1998  23.7821
 20.2803  23.6572
 20.3607  23.7877
 20.4413  23.7849
 20.5218  23.608
 20.6023  23.7785
 20.6828  23.7889
 20.7632  24.19
 20.8438  23.8757
 20.9243  23.9974
 21.0048  23.7855
 21.0853  23.8411
 21.1658  23.8318
 21.2462  23.9336
 21.3268  23.8962
 21.4073  23.9412
 21.4878  24.0377
 21.5683  23.9884
 21.6487  24.1773
 21.7293  24.1753
 21.8098  24.1909
 21.8903  24.2297
 21.9708  24.5754
 22.0512  24.2558
 22.1318  24.4222
 22.2123  24.3183
 22.2928  24.4235
 22.3733  24.5897
 22.4538  24.6397
 22.5343  24.6973
 22.6148  24.8954
 22.6953  25.0233
 22.7758  25.3066
 22.8563  25.5549
 22.9367  25.9685
 22.9943  26.1552