File: test-data-xrd/xrd-map-34-ID-E/Data_0055.chi
F:\20151113_APS_34IDE\\Brian\Particle1\OCV\Data_0055.tif
2-Theta Angle (Degrees)
Intensity
       2000
 0.07475  0.0000000E+00
 0.15525  0.0000000E+00
 0.23575  0.0000000E+00
 0.31625  0.0000000E+00
 0.39675  0.0000000E+00
 0.47725  0.0000000E+00
 0.55775  0.0000000E+00
 0.63825  0.0000000E+00
 0.71875  0.0000000E+00
 0.79925  0.0000000E+00
 0.87975  0.0000000E+00
 0.96025  0.0000000E+00
 1.04075  0.0000000E+00
 1.12125  0.0000000E+00
 1.20175  0.0000000E+00
 1.28225  0.0000000E+00
 1.36275  0.0000000E+00
 1.44325  0.0000000E+00
 1.52375  0.0000000E+00
 1.60425  0.0000000E+00
 1.68475  0.0000000E+00
 1.76525  0.0000000E+00
 1.84575  0.0000000E+00
 1.92625  0.0000000E+00
 2.00675  0.0000000E+00
 2.08725  0.0000000E+00
 2.16775  0.0000000E+00
 2.24825  0.0000000E+00
 2.32875  0.0000000E+00
 2.40925  0.0000000E+00
 2.48975  0.0000000E+00
 2.57025  0.0000000E+00
 2.65075  0.0000000E+00
 2.73125  0.0000000E+00
 2.81175  0.0000000E+00
 2.89225  34.0016
 2.97275  34.8995
 3.05325  35.6539
 3.13375  35.5373
 3.21425  36.7273
 3.29475  35.345
 3.37525  35.433
 3.45575  34.2815
 3.53625  34.8256
 3.61675  33.5115
 3.69725  33.9375
 3.77775  32.9822
 3.85825  33.1212
 3.93875  32.7405
 4.01925  32.964
 4.09975  32.392
 4.18025  32.3384
 4.26075  32.248
 4.34125  32.5618
 4.42175  32.4858
 4.50225  32.6102
 4.58275  32.7968
 4.66325  32.724
 4.74375  32.3907
 4.82425  32.7315
 4.90475  32.8548
 4.98525  32.9056
 5.06575  33.0713
 5.14625  33.6974
 5.22675  34.0645
 5.30725  34.5963
 5.38775  34.4395
 5.46825  34.5557
 5.54875  35.1065
 5.62925  35.4078
 5.70975  35.4518
 5.79025  35.838
 5.87075  35.7796
 5.95125  38.1855
 6.03175  37.5935
 6.11225  36.5337
 6.19275  36.7044
 6.27325  37.5558
 6.35375  38.1367
 6.43425  38.3719
 6.51475  39.253
 6.59525  39.4755
 6.67575  40.3395
 6.75625  40.7296
 6.83675  41.631
 6.91725  42.1868
 6.99775  42.5567
 7.07825  42.6983
 7.15875  43.2508
 7.23925  43.8499
 7.31975  43.7418
 7.40025  43.9668
 7.48075  44.2275
 7.56125  44.2739
 7.64175  44.3247
 7.72225  44.6588
 7.80275  44.4887
 7.88325  44.334
 7.96375  43.7404
 8.04425  43.4067
 8.12475  42.8922
 8.20525  42.0423
 8.28575  41.4303
 8.36625  40.3876
 8.44675  38.6462
 8.52725  37.7235
 8.60775  36.4421
 8.68825  35.0783
 8.76875  33.6112
 8.84925  32.6749
 8.92975  31.6546
 9.01025  30.5846
 9.09075  29.6345
 9.17125  28.8996
 9.25175  28.0611
 9.33225  27.2963
 9.41275  26.5922
 9.49325  26.5027
 9.57375  25.602
 9.65425  25.5022
 9.73475  25.081
 9.81525  24.5537
 9.89575  24.2817
 9.97625  24.1495
 10.0567  23.9631
 10.1373  23.7675
 10.2178  23.5502
 10.2982  23.3618
 10.3788  23.3075
 10.4593  22.9083
 10.5397  22.9871
 10.6203  22.8349
 10.7007  22.7787
 10.7813  22.5588
 10.8618  22.503
 10.9422  22.3601
 11.0228  22.3769
 11.1033  22.4381
 11.1837  22.4499
 11.2643  22.2597
 11.3447  22.2082
 11.4253  22.4695
 11.5058  22.1784
 11.5862  23.2487
 11.6668  22.3651
 11.7473  22.241
 11.8277  22.2143
 11.9083  22.2018
 11.9887  22.3944
 12.0693  22.434
 12.1498  22.5083
 12.2302  22.1834
 12.3108  22.2837
 12.3913  22.3826
 12.4718  22.3737
 12.5523  22.4921
 12.6328  22.567
 12.7133  22.7666
 12.7938  22.8136
 12.8742  23.1379
 12.9548  23.5715
 13.0353  23.9913
 13.1158  24.6641
 13.1963  25.554
 13.2768  26.2625
 13.3573  27.4108
 13.4378  28.467
 13.5183  29.2574
 13.5988  29.4575
 13.6793  29.6384
 13.7598  29.1584
 13.8403  28.8178
 13.9208  29.0444
 14.0013  28.6558
 14.0818  27.3303
 14.1623  26.8616
 14.2428  26.3142
 14.3233  26.0586
 14.4038  25.7719
 14.4843  25.4031
 14.5648  25.3368
 14.6453  25.0162
 14.7258  24.9376
 14.8063  24.8685
 14.8868  24.7727
 14.9673  24.6153
 15.0478  24.7212
 15.1283  24.5987
 15.2088  24.902
 15.2892  24.2725
 15.3698  24.2874
 15.4503  24.3261
 15.5308  24.3063
 15.6113  24.3435
 15.6918  24.3081
 15.7723  24.4408
 15.8528  24.3762
 15.9332  24.4139
 16.0138  24.4998
 16.0943  24.4501
 16.1748  24.4173
 16.2553  24.937
 16.3358  24.6997
 16.4163  24.5867
 16.4967  24.402
 16.5773  24.2423
 16.6578  24.2458
 16.7383  24.1398
 16.8188  24.1277
 16.8992  24.0922
 16.9798  24.0264
 17.0603  23.8738
 17.1408  24.0216
 17.2213  23.9931
 17.3017  23.7605
 17.3823  23.738
 17.4628  23.8285
 17.5433  23.7003
 17.6238  23.6477
 17.7042  23.5854
 17.7847  23.5519
 17.8653  23.459
 17.9458  23.3709
 18.0263  23.5629
 18.1068  23.6261
 18.1872  23.2162
 18.2678  23.2659
 18.3483  23.2694
 18.4288  23.2716
 18.5093  23.2373
 18.5897  23.3146
 18.6703  23.2238
 18.7508  23.2123
 18.8313  23.2695
 18.9118  23.4125
 18.9922  23.2587
 19.0727  23.3637
 19.1533  23.2387
 19.2338  23.2801
 19.3143  23.2332
 19.3948  23.2576
 19.4752  23.5524
 19.5558  23.2569
 19.6363  23.4523
 19.7168  23.8875
 19.7973  23.5256
 19.8777  23.8759
 19.9582  23.4721
 20.0388  23.3081
 20.1193  23.4783
 20.1998  23.4275
 20.2803  23.3513
 20.3607  23.4815
 20.4413  23.4127
 20.5218  23.3227
 20.6023  23.5177
 20.6828  23.5087
 20.7632  23.8856
 20.8438  23.5812
 20.9243  23.6093
 21.0048  23.6785
 21.0853  23.5728
 21.1658  23.5394
 21.2462  23.6783
 21.3268  23.5487
 21.4073  23.5458
 21.4878  23.8199
 21.5683  23.7093
 21.6487  23.8359
 21.7293  23.9559
 21.8098  23.8328
 21.8903  23.9391
 21.9708  23.9526
 22.0512  24.05
 22.1318  24.0827
 22.2123  24.147
 22.2928  24.1626
 22.3733  24.3651
 22.4538  24.2478
 22.5343  24.4858
 22.6148  24.5239
 22.6953  24.7972
 22.7758  24.9571
 22.8563  25.1869
 22.9367  25.6438
 22.9943  25.8734