File: test-data-xrd/xrd-map-34-ID-E/Data_0062.chi
F:\20151113_APS_34IDE\\Brian\Particle1\OCV\Data_0062.tif
2-Theta Angle (Degrees)
Intensity
       2000
 0.07475  0.0000000E+00
 0.15525  0.0000000E+00
 0.23575  0.0000000E+00
 0.31625  0.0000000E+00
 0.39675  0.0000000E+00
 0.47725  0.0000000E+00
 0.55775  0.0000000E+00
 0.63825  0.0000000E+00
 0.71875  0.0000000E+00
 0.79925  0.0000000E+00
 0.87975  0.0000000E+00
 0.96025  0.0000000E+00
 1.04075  0.0000000E+00
 1.12125  0.0000000E+00
 1.20175  0.0000000E+00
 1.28225  0.0000000E+00
 1.36275  0.0000000E+00
 1.44325  0.0000000E+00
 1.52375  0.0000000E+00
 1.60425  0.0000000E+00
 1.68475  0.0000000E+00
 1.76525  0.0000000E+00
 1.84575  0.0000000E+00
 1.92625  0.0000000E+00
 2.00675  0.0000000E+00
 2.08725  0.0000000E+00
 2.16775  0.0000000E+00
 2.24825  0.0000000E+00
 2.32875  0.0000000E+00
 2.40925  0.0000000E+00
 2.48975  0.0000000E+00
 2.57025  0.0000000E+00
 2.65075  0.0000000E+00
 2.73125  0.0000000E+00
 2.81175  0.0000000E+00
 2.89225  33.6459
 2.97275  34.4792
 3.05325  34.4983
 3.13375  34.6046
 3.21425  34.8465
 3.29475  34.7659
 3.37525  34.191
 3.45575  33.9214
 3.53625  33.5451
 3.61675  33.3075
 3.69725  33.3239
 3.77775  32.5647
 3.85825  32.2634
 3.93875  32.2778
 4.01925  31.7526
 4.09975  31.9774
 4.18025  31.5493
 4.26075  31.6848
 4.34125  31.9231
 4.42175  32.2677
 4.50225  32.2102
 4.58275  32.4852
 4.66325  32.5303
 4.74375  32.464
 4.82425  32.4424
 4.90475  32.0729
 4.98525  32.9374
 5.06575  33.4015
 5.14625  33.4914
 5.22675  33.6543
 5.30725  33.7692
 5.38775  33.9888
 5.46825  34.1347
 5.54875  34.7605
 5.62925  34.7911
 5.70975  35.1697
 5.79025  35.2722
 5.87075  36.1003
 5.95125  44.7674
 6.03175  53.0414
 6.11225  36.9637
 6.19275  36.8302
 6.27325  37.3104
 6.35375  37.7267
 6.43425  38.0952
 6.51475  38.7581
 6.59525  39.1069
 6.67575  39.6742
 6.75625  40.4089
 6.83675  41.057
 6.91725  41.6119
 6.99775  42.0553
 7.07825  42.2679
 7.15875  42.7719
 7.23925  43.4124
 7.31975  43.1943
 7.40025  43.4471
 7.48075  43.6384
 7.56125  43.7171
 7.64175  43.7274
 7.72225  43.84
 7.80275  43.5825
 7.88325  43.4022
 7.96375  43.1593
 8.04425  42.8871
 8.12475  42.2235
 8.20525  41.4161
 8.28575  40.4492
 8.36625  39.4223
 8.44675  38.3829
 8.52725  37.2434
 8.60775  36.054
 8.68825  34.8132
 8.76875  33.6034
 8.84925  32.5386
 8.92975  31.3436
 9.01025  30.3775
 9.09075  29.489
 9.17125  28.9087
 9.25175  27.9798
 9.33225  27.3592
 9.41275  26.8991
 9.49325  26.4981
 9.57375  26.056
 9.65425  25.5711
 9.73475  25.2011
 9.81525  24.9637
 9.89575  24.4055
 9.97625  24.2529
 10.0567  23.9403
 10.1373  23.9278
 10.2178  23.7046
 10.2982  23.6782
 10.3788  23.2685
 10.4593  23.1678
 10.5397  23.0218
 10.6203  22.9998
 10.7007  22.9316
 10.7813  22.8159
 10.8618  22.7009
 10.9422  22.5293
 11.0228  22.474
 11.1033  22.3842
 11.1837  22.3175
 11.2643  22.436
 11.3447  22.4531
 11.4253  22.8539
 11.5058  22.9896
 11.5862  28.9238
 11.6668  23.7324
 11.7473  22.5334
 11.8277  22.7568
 11.9083  22.6935
 11.9887  23.9705
 12.0693  24.332
 12.1498  24.25
 12.2302  22.533
 12.3108  22.6127
 12.3913  22.5937
 12.4718  22.5774
 12.5523  22.775
 12.6328  22.8465
 12.7133  22.7441
 12.7938  22.8903
 12.8742  23.2065
 12.9548  23.6598
 13.0353  24.0529
 13.1158  24.8802
 13.1963  25.8706
 13.2768  26.4405
 13.3573  27.5647
 13.4378  28.4595
 13.5183  29.0664
 13.5988  29.5092
 13.6793  29.4752
 13.7598  29.2865
 13.8403  29.2778
 13.9208  34.6211
 14.0013  32.4809
 14.0818  27.4836
 14.1623  26.8798
 14.2428  26.4368
 14.3233  26.1187
 14.4038  25.9505
 14.4843  25.7401
 14.5648  25.4526
 14.6453  25.1538
 14.7258  25.1244
 14.8063  25.0785
 14.8868  24.915
 14.9673  24.7949
 15.0478  24.8571
 15.1283  25.1282
 15.2088  27.92
 15.2892  24.8884
 15.3698  24.5685
 15.4503  24.4482
 15.5308  24.4469
 15.6113  24.3875
 15.6918  24.5325
 15.7723  24.422
 15.8528  24.5016
 15.9332  24.7126
 16.0138  24.5488
 16.0943  24.6164
 16.1748  24.7314
 16.2553  25.6664
 16.3358  25.0008
 16.4163  24.5871
 16.4967  24.647
 16.5773  24.5109
 16.6578  24.4891
 16.7383  24.3944
 16.8188  24.4219
 16.8992  24.3067
 16.9798  24.3156
 17.0603  24.2036
 17.1408  24.1607
 17.2213  24.0242
 17.3017  24.146
 17.3823  23.9167
 17.4628  24.0165
 17.5433  23.8605
 17.6238  23.8675
 17.7042  23.8012
 17.7847  23.7138
 17.8653  23.8271
 17.9458  23.9852
 18.0263  24.7767
 18.1068  26.2338
 18.1872  24.0319
 18.2678  23.6433
 18.3483  23.6944
 18.4288  23.5813
 18.5093  23.7189
 18.5897  23.5853
 18.6703  23.4497
 18.7508  23.4665
 18.8313  23.5355
 18.9118  23.5617
 18.9922  23.4997
 19.0727  23.5274
 19.1533  23.5527
 19.2338  23.5264
 19.3143  23.5701
 19.3948  23.6954
 19.4752  23.6718
 19.5558  23.9277
 19.6363  24.5707
 19.7168  28.4576
 19.7973  25.8604
 19.8777  28.4701
 19.9582  24.1865
 20.0388  23.9478
 20.1193  23.7936
 20.1998  23.8646
 20.2803  23.7223
 20.3607  23.8272
 20.4413  23.8942
 20.5218  23.7959
 20.6023  23.8822
 20.6828  24.436
 20.7632  26.7817
 20.8438  24.337
 20.9243  24.1056
 21.0048  23.976
 21.0853  24.0426
 21.1658  23.9191
 21.2462  23.9522
 21.3268  23.8281
 21.4073  23.8258
 21.4878  23.8546
 21.5683  23.9892
 21.6487  24.0464
 21.7293  24.1281
 21.8098  24.091
 21.8903  24.3829
 21.9708  24.0655
 22.0512  24.2506
 22.1318  24.3534
 22.2123  24.3759
 22.2928  24.5344
 22.3733  24.4854
 22.4538  24.666
 22.5343  24.8564
 22.6148  24.954
 22.6953  25.1561
 22.7758  25.3616
 22.8563  25.6121
 22.9367  25.9913
 22.9943  26.6611