File: test-data-xrd/xrd-map-34-ID-E/Data_0045.chi
F:\20151113_APS_34IDE\\Brian\Particle1\OCV\Data_0045.tif
2-Theta Angle (Degrees)
Intensity
       2000
 0.07475  0.0000000E+00
 0.15525  0.0000000E+00
 0.23575  0.0000000E+00
 0.31625  0.0000000E+00
 0.39675  0.0000000E+00
 0.47725  0.0000000E+00
 0.55775  0.0000000E+00
 0.63825  0.0000000E+00
 0.71875  0.0000000E+00
 0.79925  0.0000000E+00
 0.87975  0.0000000E+00
 0.96025  0.0000000E+00
 1.04075  0.0000000E+00
 1.12125  0.0000000E+00
 1.20175  0.0000000E+00
 1.28225  0.0000000E+00
 1.36275  0.0000000E+00
 1.44325  0.0000000E+00
 1.52375  0.0000000E+00
 1.60425  0.0000000E+00
 1.68475  0.0000000E+00
 1.76525  0.0000000E+00
 1.84575  0.0000000E+00
 1.92625  0.0000000E+00
 2.00675  0.0000000E+00
 2.08725  0.0000000E+00
 2.16775  0.0000000E+00
 2.24825  0.0000000E+00
 2.32875  0.0000000E+00
 2.40925  0.0000000E+00
 2.48975  0.0000000E+00
 2.57025  0.0000000E+00
 2.65075  0.0000000E+00
 2.73125  0.0000000E+00
 2.81175  0.0000000E+00
 2.89225  35.0107
 2.97275  35.7321
 3.05325  34.832
 3.13375  34.4609
 3.21425  34.861
 3.29475  34.1098
 3.37525  34.4074
 3.45575  33.4131
 3.53625  33.1463
 3.61675  33.0477
 3.69725  32.8506
 3.77775  32.3793
 3.85825  32.5542
 3.93875  32.4849
 4.01925  32.1707
 4.09975  32.1084
 4.18025  32.0905
 4.26075  32.012
 4.34125  32.0409
 4.42175  31.8522
 4.50225  32.271
 4.58275  32.3458
 4.66325  32.9495
 4.74375  32.7782
 4.82425  32.5683
 4.90475  32.4681
 4.98525  33.1329
 5.06575  33.1324
 5.14625  33.5307
 5.22675  33.9148
 5.30725  33.9723
 5.38775  34.4839
 5.46825  34.8832
 5.54875  35.0323
 5.62925  35.6921
 5.70975  35.8289
 5.79025  37.3944
 5.87075  40.7911
 5.95125  121.733
 6.03175  151.662
 6.11225  41.1853
 6.19275  38.5376
 6.27325  38.461
 6.35375  38.3953
 6.43425  38.843
 6.51475  39.1181
 6.59525  39.7672
 6.67575  40.2782
 6.75625  40.8368
 6.83675  41.4403
 6.91725  42.1445
 6.99775  42.32
 7.07825  42.7808
 7.15875  43.1041
 7.23925  43.3797
 7.31975  43.8697
 7.40025  44.0896
 7.48075  44.0639
 7.56125  44.587
 7.64175  44.3833
 7.72225  44.3873
 7.80275  44.2182
 7.88325  43.9622
 7.96375  43.4399
 8.04425  43.4093
 8.12475  43.0106
 8.20525  42.1402
 8.28575  40.9902
 8.36625  39.9435
 8.44675  39.1135
 8.52725  37.8239
 8.60775  36.5357
 8.68825  35.1714
 8.76875  33.9785
 8.84925  32.9502
 8.92975  31.8236
 9.01025  30.5969
 9.09075  30.006
 9.17125  29.0889
 9.25175  28.2113
 9.33225  27.6563
 9.41275  27.2773
 9.49325  26.6509
 9.57375  25.9515
 9.65425  25.6054
 9.73475  25.3209
 9.81525  25.0363
 9.89575  24.7131
 9.97625  24.4088
 10.0567  24.2105
 10.1373  23.9026
 10.2178  23.7465
 10.2982  23.6533
 10.3788  23.7138
 10.4593  23.2151
 10.5397  23.2388
 10.6203  23.1279
 10.7007  23.019
 10.7813  24.0181
 10.8618  22.9491
 10.9422  23.3211
 11.0228  22.6717
 11.1033  22.7081
 11.1837  22.6766
 11.2643  22.4862
 11.3447  22.6065
 11.4253  22.8187
 11.5058  23.2251
 11.5862  28.2019
 11.6668  23.2043
 11.7473  22.623
 11.8277  22.6098
 11.9083  22.6176
 11.9887  23.0765
 12.0693  23.0917
 12.1498  23.3318
 12.2302  22.4842
 12.3108  22.7941
 12.3913  22.6894
 12.4718  22.6791
 12.5523  22.7315
 12.6328  23.0522
 12.7133  23.0901
 12.7938  23.2154
 12.8742  23.3746
 12.9548  23.8411
 13.0353  24.1148
 13.1158  25.0248
 13.1963  25.8304
 13.2768  26.6676
 13.3573  27.833
 13.4378  28.6977
 13.5183  29.4373
 13.5988  29.7364
 13.6793  29.6658
 13.7598  29.5014
 13.8403  29.4515
 13.9208  32.7341
 14.0013  33.4158
 14.0818  27.8491
 14.1623  26.96
 14.2428  26.6208
 14.3233  26.1384
 14.4038  26.0971
 14.4843  25.6725
 14.5648  25.6353
 14.6453  25.4296
 14.7258  25.216
 14.8063  25.1389
 14.8868  25.0022
 14.9673  24.948
 15.0478  24.9292
 15.1283  25.0937
 15.2088  25.7361
 15.2892  24.8414
 15.3698  24.6631
 15.4503  24.5252
 15.5308  24.7601
 15.6113  24.5947
 15.6918  24.6149
 15.7723  24.4624
 15.8528  24.6267
 15.9332  24.6383
 16.0138  24.6172
 16.0943  24.9068
 16.1748  25.2372
 16.2553  28.5118
 16.3358  25.1584
 16.4163  24.8912
 16.4967  24.7863
 16.5773  24.7272
 16.6578  24.6052
 16.7383  24.4093
 16.8188  24.4996
 16.8992  24.4023
 16.9798  24.3643
 17.0603  24.2089
 17.1408  24.2559
 17.2213  24.2083
 17.3017  24.2199
 17.3823  24.1212
 17.4628  24.0241
 17.5433  23.8823
 17.6238  23.9685
 17.7042  23.9352
 17.7847  23.8397
 17.8653  23.754
 17.9458  23.863
 18.0263  24.2147
 18.1068  25.7471
 18.1872  23.9798
 18.2678  23.7183
 18.3483  23.648
 18.4288  23.6648
 18.5093  23.8106
 18.5897  23.5864
 18.6703  23.5284
 18.7508  23.5571
 18.8313  23.5386
 18.9118  23.5868
 18.9922  23.5109
 19.0727  23.5382
 19.1533  23.6423
 19.2338  23.6181
 19.3143  23.5758
 19.3948  23.6061
 19.4752  23.639
 19.5558  23.8177
 19.6363  24.0192
 19.7168  25.5576
 19.7973  24.4805
 19.8777  26.6747
 19.9582  24.0537
 20.0388  23.7387
 20.1193  23.6979
 20.1998  23.7135
 20.2803  23.7289
 20.3607  23.7192
 20.4413  23.8313
 20.5218  23.7159
 20.6023  23.9563
 20.6828  24.4936
 20.7632  27.7013
 20.8438  24.3514
 20.9243  24.0604
 21.0048  23.9982
 21.0853  23.9711
 21.1658  23.8361
 21.2462  23.9994
 21.3268  23.9746
 21.4073  24.035
 21.4878  24.1355
 21.5683  23.973
 21.6487  24.1881
 21.7293  24.2705
 21.8098  24.1147
 21.8903  24.2902
 21.9708  24.2954
 22.0512  24.2832
 22.1318  24.2745
 22.2123  24.2908
 22.2928  24.3687
 22.3733  24.5231
 22.4538  24.6562
 22.5343  25.3667
 22.6148  24.8245
 22.6953  25.1114
 22.7758  25.363
 22.8563  25.6198
 22.9367  26.0851
 22.9943  26.5309