File: test-data-xrd/xrd-map-34-ID-E/Data_0119.chi
F:\20151113_APS_34IDE\\Brian\Particle1\OCV\Data_0119.tif
2-Theta Angle (Degrees)
Intensity
       2000
 0.07475  0.0000000E+00
 0.15525  0.0000000E+00
 0.23575  0.0000000E+00
 0.31625  0.0000000E+00
 0.39675  0.0000000E+00
 0.47725  0.0000000E+00
 0.55775  0.0000000E+00
 0.63825  0.0000000E+00
 0.71875  0.0000000E+00
 0.79925  0.0000000E+00
 0.87975  0.0000000E+00
 0.96025  0.0000000E+00
 1.04075  0.0000000E+00
 1.12125  0.0000000E+00
 1.20175  0.0000000E+00
 1.28225  0.0000000E+00
 1.36275  0.0000000E+00
 1.44325  0.0000000E+00
 1.52375  0.0000000E+00
 1.60425  0.0000000E+00
 1.68475  0.0000000E+00
 1.76525  0.0000000E+00
 1.84575  0.0000000E+00
 1.92625  0.0000000E+00
 2.00675  0.0000000E+00
 2.08725  0.0000000E+00
 2.16775  0.0000000E+00
 2.24825  0.0000000E+00
 2.32875  0.0000000E+00
 2.40925  0.0000000E+00
 2.48975  0.0000000E+00
 2.57025  0.0000000E+00
 2.65075  0.0000000E+00
 2.73125  0.0000000E+00
 2.81175  0.0000000E+00
 2.89225  33.2002
 2.97275  36.4833
 3.05325  35.5461
 3.13375  34.4132
 3.21425  34.4955
 3.29475  34.1696
 3.37525  34.5537
 3.45575  33.5999
 3.53625  33.0367
 3.61675  33.0996
 3.69725  33.1521
 3.77775  32.4932
 3.85825  32.3221
 3.93875  32.4599
 4.01925  32.3612
 4.09975  32.6062
 4.18025  32.2678
 4.26075  32.1474
 4.34125  32.7758
 4.42175  32.3973
 4.50225  32.4694
 4.58275  32.5391
 4.66325  32.5594
 4.74375  32.3772
 4.82425  32.0751
 4.90475  32.4871
 4.98525  32.7861
 5.06575  33.341
 5.14625  33.4195
 5.22675  33.8513
 5.30725  34.0833
 5.38775  34.3039
 5.46825  34.7364
 5.54875  34.4858
 5.62925  35.119
 5.70975  35.3462
 5.79025  35.0279
 5.87075  35.2365
 5.95125  36.8844
 6.03175  36.8373
 6.11225  36.5186
 6.19275  36.4767
 6.27325  37.0564
 6.35375  37.8129
 6.43425  38.0355
 6.51475  38.8307
 6.59525  39.2106
 6.67575  39.8544
 6.75625  40.3956
 6.83675  41.2168
 6.91725  41.4502
 6.99775  41.8267
 7.07825  42.3382
 7.15875  42.7349
 7.23925  43.0693
 7.31975  43.1287
 7.40025  43.4401
 7.48075  43.5345
 7.56125  43.9115
 7.64175  44.0931
 7.72225  43.8775
 7.80275  43.6862
 7.88325  43.4089
 7.96375  43.2124
 8.04425  42.5055
 8.12475  42.2147
 8.20525  41.4428
 8.28575  40.2045
 8.36625  39.4372
 8.44675  38.1367
 8.52725  37.3472
 8.60775  35.6132
 8.68825  34.7804
 8.76875  33.3949
 8.84925  32.5525
 8.92975  31.1311
 9.01025  29.9651
 9.09075  29.2561
 9.17125  28.5891
 9.25175  27.5199
 9.33225  27.0642
 9.41275  26.4265
 9.49325  25.9685
 9.57375  25.5355
 9.65425  25.2974
 9.73475  24.7084
 9.81525  24.4544
 9.89575  24.2239
 9.97625  23.7994
 10.0567  23.4861
 10.1373  23.289
 10.2178  23.4033
 10.2982  22.9548
 10.3788  22.8137
 10.4593  22.8771
 10.5397  22.8769
 10.6203  22.5652
 10.7007  22.5213
 10.7813  22.4486
 10.8618  22.4289
 10.9422  22.2146
 11.0228  22.1112
 11.1033  22.1467
 11.1837  21.8775
 11.2643  22.0178
 11.3447  22.0776
 11.4253  22.2306
 11.5058  21.9786
 11.5862  22.9707
 11.6668  22.1046
 11.7473  21.8756
 11.8277  21.7816
 11.9083  22.0061
 11.9887  22.0413
 12.0693  22.2193
 12.1498  22.1418
 12.2302  21.9977
 12.3108  22.1632
 12.3913  22.1038
 12.4718  22.0062
 12.5523  22.329
 12.6328  22.2996
 12.7133  22.616
 12.7938  22.4128
 12.8742  22.909
 12.9548  23.1932
 13.0353  23.7403
 13.1158  24.4042
 13.1963  25.1848
 13.2768  26.0363
 13.3573  27.1149
 13.4378  28.0373
 13.5183  28.9731
 13.5988  29.5768
 13.6793  29.2144
 13.7598  28.8938
 13.8403  28.549
 13.9208  29.4143
 14.0013  28.8159
 14.0818  26.9658
 14.1623  26.5729
 14.2428  25.9191
 14.3233  25.6309
 14.4038  25.484
 14.4843  25.1484
 14.5648  25.1357
 14.6453  24.7572
 14.7258  24.6394
 14.8063  24.4233
 14.8868  24.4534
 14.9673  24.3407
 15.0478  24.38
 15.1283  24.3458
 15.2088  24.66
 15.2892  24.0997
 15.3698  24.1955
 15.4503  23.9867
 15.5308  24.0128
 15.6113  24.1451
 15.6918  24.1084
 15.7723  24.1867
 15.8528  24.2191
 15.9332  24.1767
 16.0138  24.1411
 16.0943  24.3227
 16.1748  24.3593
 16.2553  24.8737
 16.3358  24.3486
 16.4163  24.3417
 16.4967  24.1769
 16.5773  24.0994
 16.6578  24.0799
 16.7383  24.1461
 16.8188  24.0121
 16.8992  23.9552
 16.9798  23.7539
 17.0603  23.6704
 17.1408  23.7859
 17.2213  23.7368
 17.3017  23.5926
 17.3823  23.543
 17.4628  23.4933
 17.5433  23.3601
 17.6238  23.4307
 17.7042  23.313
 17.7847  23.2198
 17.8653  23.2756
 17.9458  23.3549
 18.0263  23.1989
 18.1068  23.2776
 18.1872  23.0332
 18.2678  23.1028
 18.3483  23.1129
 18.4288  23.0763
 18.5093  22.9064
 18.5897  22.9647
 18.6703  22.9785
 18.7508  22.9604
 18.8313  23.0614
 18.9118  23.0483
 18.9922  23.0302
 19.0727  23.0601
 19.1533  23.0209
 19.2338  22.9396
 19.3143  23.0104
 19.3948  23.2514
 19.4752  22.9993
 19.5558  23.0317
 19.6363  23.224
 19.7168  23.6456
 19.7973  23.4902
 19.8777  23.6698
 19.9582  23.1352
 20.0388  23.0829
 20.1193  23.2152
 20.1998  23.0776
 20.2803  23.1003
 20.3607  23.1058
 20.4413  23.1676
 20.5218  23.0255
 20.6023  23.1411
 20.6828  23.1861
 20.7632  23.9737
 20.8438  23.3098
 20.9243  23.3978
 21.0048  23.4385
 21.0853  23.4088
 21.1658  23.2428
 21.2462  23.334
 21.3268  23.2898
 21.4073  23.3011
 21.4878  23.5098
 21.5683  23.5535
 21.6487  23.6152
 21.7293  23.5512
 21.8098  23.6179
 21.8903  23.6083
 21.9708  23.7104
 22.0512  23.7177
 22.1318  23.906
 22.2123  23.9178
 22.2928  23.8189
 22.3733  24.0126
 22.4538  24.0296
 22.5343  24.3188
 22.6148  24.4341
 22.6953  24.6019
 22.7758  24.751
 22.8563  24.9494
 22.9367  25.3463
 22.9943  25.6315