File: test-data-xrd/xrd-map-34-ID-E/Data_0071.chi
F:\20151113_APS_34IDE\\Brian\Particle1\OCV\Data_0071.tif
2-Theta Angle (Degrees)
Intensity
       2000
 0.07475  0.0000000E+00
 0.15525  0.0000000E+00
 0.23575  0.0000000E+00
 0.31625  0.0000000E+00
 0.39675  0.0000000E+00
 0.47725  0.0000000E+00
 0.55775  0.0000000E+00
 0.63825  0.0000000E+00
 0.71875  0.0000000E+00
 0.79925  0.0000000E+00
 0.87975  0.0000000E+00
 0.96025  0.0000000E+00
 1.04075  0.0000000E+00
 1.12125  0.0000000E+00
 1.20175  0.0000000E+00
 1.28225  0.0000000E+00
 1.36275  0.0000000E+00
 1.44325  0.0000000E+00
 1.52375  0.0000000E+00
 1.60425  0.0000000E+00
 1.68475  0.0000000E+00
 1.76525  0.0000000E+00
 1.84575  0.0000000E+00
 1.92625  0.0000000E+00
 2.00675  0.0000000E+00
 2.08725  0.0000000E+00
 2.16775  0.0000000E+00
 2.24825  0.0000000E+00
 2.32875  0.0000000E+00
 2.40925  0.0000000E+00
 2.48975  0.0000000E+00
 2.57025  0.0000000E+00
 2.65075  0.0000000E+00
 2.73125  0.0000000E+00
 2.81175  0.0000000E+00
 2.89225  35.9731
 2.97275  36.1893
 3.05325  35.4793
 3.13375  34.5336
 3.21425  35.1243
 3.29475  33.4892
 3.37525  35.3328
 3.45575  34.0308
 3.53625  32.9799
 3.61675  33.1641
 3.69725  32.6115
 3.77775  32.9522
 3.85825  32.608
 3.93875  32.9474
 4.01925  32.7236
 4.09975  32.5078
 4.18025  32.094
 4.26075  32.0922
 4.34125  32.1652
 4.42175  32.596
 4.50225  32.3485
 4.58275  32.6287
 4.66325  32.9896
 4.74375  32.621
 4.82425  32.0603
 4.90475  32.4208
 4.98525  32.7956
 5.06575  32.9525
 5.14625  33.7886
 5.22675  33.7572
 5.30725  33.7108
 5.38775  34.751
 5.46825  34.4619
 5.54875  34.7981
 5.62925  34.7682
 5.70975  35.5635
 5.79025  36.2157
 5.87075  37.6108
 5.95125  58.0149
 6.03175  53.8114
 6.11225  37.9508
 6.19275  37.4516
 6.27325  37.6437
 6.35375  37.8818
 6.43425  38.4717
 6.51475  39.081
 6.59525  39.1879
 6.67575  39.9312
 6.75625  40.9012
 6.83675  41.2123
 6.91725  41.7555
 6.99775  42.2015
 7.07825  42.5853
 7.15875  43.2373
 7.23925  43.2972
 7.31975  43.3265
 7.40025  43.6638
 7.48075  43.8788
 7.56125  44.3339
 7.64175  44.538
 7.72225  43.797
 7.80275  43.7489
 7.88325  43.5146
 7.96375  43.2096
 8.04425  42.8402
 8.12475  42.5228
 8.20525  41.5481
 8.28575  40.5674
 8.36625  39.9508
 8.44675  38.5971
 8.52725  37.6023
 8.60775  36.0486
 8.68825  35.0374
 8.76875  33.6456
 8.84925  32.7424
 8.92975  31.3611
 9.01025  30.6111
 9.09075  29.8179
 9.17125  28.8946
 9.25175  28.0973
 9.33225  27.3566
 9.41275  26.9522
 9.49325  26.4872
 9.57375  25.9589
 9.65425  25.6141
 9.73475  25.2371
 9.81525  24.9322
 9.89575  24.7136
 9.97625  24.3367
 10.0567  24.2601
 10.1373  24.0607
 10.2178  23.7187
 10.2982  23.7646
 10.3788  23.4795
 10.4593  23.2806
 10.5397  23.1504
 10.6203  22.9101
 10.7007  23.1038
 10.7813  22.9256
 10.8618  22.7869
 10.9422  22.6812
 11.0228  22.6776
 11.1033  22.5857
 11.1837  22.5548
 11.2643  22.5063
 11.3447  22.5458
 11.4253  22.901
 11.5058  23.1675
 11.5862  29.7857
 11.6668  24.2938
 11.7473  22.6527
 11.8277  22.6818
 11.9083  23.0439
 11.9887  27.8293
 12.0693  25.2989
 12.1498  27.1662
 12.2302  22.844
 12.3108  22.6689
 12.3913  22.6564
 12.4718  22.8038
 12.5523  22.8057
 12.6328  22.9085
 12.7133  23.0709
 12.7938  23.1199
 12.8742  23.4523
 12.9548  23.7893
 13.0353  24.2146
 13.1158  24.9823
 13.1963  25.5772
 13.2768  26.7076
 13.3573  27.7695
 13.4378  28.5383
 13.5183  29.5329
 13.5988  29.7492
 13.6793  30.0657
 13.7598  29.9448
 13.8403  29.8557
 13.9208  44.0121
 14.0013  38.1933
 14.0818  28.6142
 14.1623  27.396
 14.2428  26.6942
 14.3233  26.3319
 14.4038  26.0468
 14.4843  25.8469
 14.5648  25.6871
 14.6453  25.4094
 14.7258  25.334
 14.8063  25.0277
 14.8868  25.0108
 14.9673  24.9784
 15.0478  25.0141
 15.1283  25.7091
 15.2088  29.6545
 15.2892  25.2286
 15.3698  24.6057
 15.4503  24.6368
 15.5308  24.8262
 15.6113  24.7498
 15.6918  24.7798
 15.7723  24.8383
 15.8528  24.6836
 15.9332  24.8715
 16.0138  24.8144
 16.0943  24.8029
 16.1748  24.9333
 16.2553  26.2549
 16.3358  24.9798
 16.4163  24.8027
 16.4967  24.8619
 16.5773  24.6446
 16.6578  24.6233
 16.7383  24.5569
 16.8188  24.6168
 16.8992  24.4193
 16.9798  24.4681
 17.0603  24.2922
 17.1408  24.3654
 17.2213  24.3222
 17.3017  24.1047
 17.3823  24.0632
 17.4628  24.2235
 17.5433  24.066
 17.6238  23.9568
 17.7042  23.9781
 17.7847  23.9817
 17.8653  23.889
 17.9458  23.9998
 18.0263  25.6301
 18.1068  27.6871
 18.1872  24.6866
 18.2678  23.7283
 18.3483  23.8254
 18.4288  23.8982
 18.5093  23.8084
 18.5897  23.6902
 18.6703  23.5349
 18.7508  23.5715
 18.8313  23.6234
 18.9118  23.5963
 18.9922  23.5998
 19.0727  23.6475
 19.1533  23.7354
 19.2338  23.732
 19.3143  23.7532
 19.3948  23.669
 19.4752  23.828
 19.5558  24.1574
 19.6363  24.8677
 19.7168  31.5504
 19.7973  25.9756
 19.8777  28.61
 19.9582  24.3965
 20.0388  24.0045
 20.1193  24.0029
 20.1998  23.9608
 20.2803  23.8085
 20.3607  23.801
 20.4413  23.8105
 20.5218  23.8955
 20.6023  24.0325
 20.6828  24.4228
 20.7632  27.0412
 20.8438  24.4862
 20.9243  24.111
 21.0048  24.0081
 21.0853  24.1345
 21.1658  23.8978
 21.2462  24.0752
 21.3268  24.0118
 21.4073  24.0192
 21.4878  24.106
 21.5683  24.0804
 21.6487  24.1942
 21.7293  24.137
 21.8098  24.2213
 21.8903  24.324
 21.9708  24.3076
 22.0512  24.3983
 22.1318  24.4974
 22.2123  24.614
 22.2928  24.7215
 22.3733  24.7332
 22.4538  24.7584
 22.5343  24.979
 22.6148  25.0038
 22.6953  25.275
 22.7758  25.6049
 22.8563  25.7448
 22.9367  26.2388
 22.9943  26.5027