File: test-data-xrd/xrd-map-34-ID-E/Data_0122.chi
F:\20151113_APS_34IDE\\Brian\Particle1\OCV\Data_0122.tif
2-Theta Angle (Degrees)
Intensity
       2000
 0.07475  0.0000000E+00
 0.15525  0.0000000E+00
 0.23575  0.0000000E+00
 0.31625  0.0000000E+00
 0.39675  0.0000000E+00
 0.47725  0.0000000E+00
 0.55775  0.0000000E+00
 0.63825  0.0000000E+00
 0.71875  0.0000000E+00
 0.79925  0.0000000E+00
 0.87975  0.0000000E+00
 0.96025  0.0000000E+00
 1.04075  0.0000000E+00
 1.12125  0.0000000E+00
 1.20175  0.0000000E+00
 1.28225  0.0000000E+00
 1.36275  0.0000000E+00
 1.44325  0.0000000E+00
 1.52375  0.0000000E+00
 1.60425  0.0000000E+00
 1.68475  0.0000000E+00
 1.76525  0.0000000E+00
 1.84575  0.0000000E+00
 1.92625  0.0000000E+00
 2.00675  0.0000000E+00
 2.08725  0.0000000E+00
 2.16775  0.0000000E+00
 2.24825  0.0000000E+00
 2.32875  0.0000000E+00
 2.40925  0.0000000E+00
 2.48975  0.0000000E+00
 2.57025  0.0000000E+00
 2.65075  0.0000000E+00
 2.73125  0.0000000E+00
 2.81175  0.0000000E+00
 2.89225  35.1471
 2.97275  36.5702
 3.05325  36.3955
 3.13375  34.4065
 3.21425  35.2918
 3.29475  34.3838
 3.37525  34.5277
 3.45575  34.6475
 3.53625  33.4071
 3.61675  32.4868
 3.69725  33.2827
 3.77775  33.3115
 3.85825  32.4524
 3.93875  32.2797
 4.01925  33.1994
 4.09975  32.5039
 4.18025  31.2837
 4.26075  32.0764
 4.34125  32.6275
 4.42175  32.3437
 4.50225  32.3106
 4.58275  32.7061
 4.66325  32.7077
 4.74375  32.8293
 4.82425  32.3199
 4.90475  32.8864
 4.98525  32.7709
 5.06575  33.037
 5.14625  33.3089
 5.22675  33.74
 5.30725  34.2908
 5.38775  34.7705
 5.46825  34.652
 5.54875  35.0266
 5.62925  35.1266
 5.70975  35.1404
 5.79025  35.6142
 5.87075  35.8305
 5.95125  37.9278
 6.03175  39.2577
 6.11225  36.5186
 6.19275  36.7132
 6.27325  37.3314
 6.35375  37.8986
 6.43425  38.6136
 6.51475  39.078
 6.59525  39.6359
 6.67575  39.9622
 6.75625  40.6809
 6.83675  41.4053
 6.91725  41.3251
 6.99775  42.2142
 7.07825  42.5535
 7.15875  43.1399
 7.23925  43.3302
 7.31975  43.9079
 7.40025  44.0608
 7.48075  44.1551
 7.56125  44.5329
 7.64175  44.3058
 7.72225  44.4882
 7.80275  44.6443
 7.88325  43.8885
 7.96375  43.6856
 8.04425  43.4647
 8.12475  42.6591
 8.20525  41.7991
 8.28575  40.8576
 8.36625  40.1593
 8.44675  38.9407
 8.52725  37.6449
 8.60775  36.2873
 8.68825  35.3161
 8.76875  34.0392
 8.84925  33.1891
 8.92975  31.8268
 9.01025  30.7971
 9.09075  30.0488
 9.17125  29.2507
 9.25175  28.3597
 9.33225  27.6346
 9.41275  27.0053
 9.49325  26.8244
 9.57375  26.2915
 9.65425  25.6592
 9.73475  25.4923
 9.81525  25.0985
 9.89575  24.7337
 9.97625  24.4039
 10.0567  24.2699
 10.1373  24.0267
 10.2178  23.962
 10.2982  23.8129
 10.3788  23.5614
 10.4593  23.3045
 10.5397  23.0613
 10.6203  23.0752
 10.7007  23.0086
 10.7813  22.9884
 10.8618  22.8736
 10.9422  22.8013
 11.0228  22.653
 11.1033  22.5182
 11.1837  22.6436
 11.2643  22.3101
 11.3447  22.3942
 11.4253  22.6009
 11.5058  22.4598
 11.5862  23.6334
 11.6668  22.6336
 11.7473  22.4279
 11.8277  22.3652
 11.9083  22.5599
 11.9887  22.6936
 12.0693  22.8986
 12.1498  22.8452
 12.2302  22.3747
 12.3108  22.5081
 12.3913  22.5801
 12.4718  22.5984
 12.5523  23.2148
 12.6328  22.9017
 12.7133  22.9504
 12.7938  23.0352
 12.8742  23.3597
 12.9548  23.6164
 13.0353  24.0897
 13.1158  24.8317
 13.1963  25.5122
 13.2768  26.627
 13.3573  27.7932
 13.4378  28.5203
 13.5183  29.1484
 13.5988  29.5838
 13.6793  29.6384
 13.7598  29.0805
 13.8403  28.7999
 13.9208  29.0509
 14.0013  28.324
 14.0818  27.4246
 14.1623  26.7252
 14.2428  26.3299
 14.3233  26.2351
 14.4038  26.0629
 14.4843  25.6152
 14.5648  25.4544
 14.6453  25.323
 14.7258  25.0737
 14.8063  24.9889
 14.8868  24.8743
 14.9673  24.811
 15.0478  24.6352
 15.1283  24.7314
 15.2088  24.8848
 15.2892  24.5253
 15.3698  24.4907
 15.4503  24.4119
 15.5308  24.5112
 15.6113  24.4775
 15.6918  24.4706
 15.7723  24.4767
 15.8528  24.547
 15.9332  24.6275
 16.0138  24.5942
 16.0943  24.7546
 16.1748  24.8804
 16.2553  29.7027
 16.3358  25.2053
 16.4163  24.7124
 16.4967  24.6949
 16.5773  24.5086
 16.6578  24.3994
 16.7383  24.263
 16.8188  24.3282
 16.8992  24.26
 16.9798  24.2429
 17.0603  24.0546
 17.1408  24.2159
 17.2213  23.984
 17.3017  23.9633
 17.3823  24.1096
 17.4628  23.8272
 17.5433  23.8038
 17.6238  23.7179
 17.7042  23.6689
 17.7847  23.7008
 17.8653  23.694
 17.9458  23.6657
 18.0263  23.9298
 18.1068  23.828
 18.1872  23.5894
 18.2678  23.4749
 18.3483  23.532
 18.4288  23.5048
 18.5093  23.4347
 18.5897  23.5446
 18.6703  23.4775
 18.7508  23.4653
 18.8313  23.4184
 18.9118  23.4575
 18.9922  23.4558
 19.0727  23.474
 19.1533  23.4315
 19.2338  23.3906
 19.3143  23.5894
 19.3948  23.5775
 19.4752  23.5648
 19.5558  23.7541
 19.6363  23.99
 19.7168  24.3367
 19.7973  23.9278
 19.8777  24.372
 19.9582  23.76
 20.0388  23.5627
 20.1193  23.5669
 20.1998  23.4623
 20.2803  23.659
 20.3607  23.7368
 20.4413  23.7388
 20.5218  23.5828
 20.6023  23.7109
 20.6828  23.7896
 20.7632  24.3076
 20.8438  23.8247
 20.9243  23.8687
 21.0048  23.6899
 21.0853  23.8702
 21.1658  23.674
 21.2462  23.9396
 21.3268  24.454
 21.4073  23.9131
 21.4878  23.8975
 21.5683  23.9323
 21.6487  24.0033
 21.7293  23.9699
 21.8098  24.0631
 21.8903  24.1018
 21.9708  24.1592
 22.0512  24.1803
 22.1318  24.176
 22.2123  24.2134
 22.2928  24.3359
 22.3733  24.3628
 22.4538  24.5552
 22.5343  24.5859
 22.6148  24.8119
 22.6953  24.9333
 22.7758  25.0342
 22.8563  25.4
 22.9367  25.8071
 22.9943  26.0431