File: test-data-xrd/xrd-map-34-ID-E/Data_0030.chi
F:\20151113_APS_34IDE\\Brian\Particle1\OCV\Data_0030.tif
2-Theta Angle (Degrees)
Intensity
       2000
 0.07475  0.0000000E+00
 0.15525  0.0000000E+00
 0.23575  0.0000000E+00
 0.31625  0.0000000E+00
 0.39675  0.0000000E+00
 0.47725  0.0000000E+00
 0.55775  0.0000000E+00
 0.63825  0.0000000E+00
 0.71875  0.0000000E+00
 0.79925  0.0000000E+00
 0.87975  0.0000000E+00
 0.96025  0.0000000E+00
 1.04075  0.0000000E+00
 1.12125  0.0000000E+00
 1.20175  0.0000000E+00
 1.28225  0.0000000E+00
 1.36275  0.0000000E+00
 1.44325  0.0000000E+00
 1.52375  0.0000000E+00
 1.60425  0.0000000E+00
 1.68475  0.0000000E+00
 1.76525  0.0000000E+00
 1.84575  0.0000000E+00
 1.92625  0.0000000E+00
 2.00675  0.0000000E+00
 2.08725  0.0000000E+00
 2.16775  0.0000000E+00
 2.24825  0.0000000E+00
 2.32875  0.0000000E+00
 2.40925  0.0000000E+00
 2.48975  0.0000000E+00
 2.57025  0.0000000E+00
 2.65075  0.0000000E+00
 2.73125  0.0000000E+00
 2.81175  0.0000000E+00
 2.89225  35.1876
 2.97275  35.6791
 3.05325  35.1285
 3.13375  35.8635
 3.21425  36.1959
 3.29475  35.496
 3.37525  35.3459
 3.45575  34.8904
 3.53625  34.5175
 3.61675  33.7219
 3.69725  33.767
 3.77775  33.4507
 3.85825  33.4273
 3.93875  32.6317
 4.01925  33.3035
 4.09975  33.1401
 4.18025  32.7311
 4.26075  32.7268
 4.34125  33.0676
 4.42175  33.0352
 4.50225  33.0052
 4.58275  32.7394
 4.66325  33.1625
 4.74375  32.8717
 4.82425  32.9589
 4.90475  33.4181
 4.98525  33.4621
 5.06575  33.8117
 5.14625  34.1615
 5.22675  34.4363
 5.30725  34.1605
 5.38775  34.638
 5.46825  34.8699
 5.54875  35.1089
 5.62925  35.4954
 5.70975  35.6838
 5.79025  35.7514
 5.87075  36.6234
 5.95125  40.483
 6.03175  39.7517
 6.11225  37.2005
 6.19275  37.309
 6.27325  37.6628
 6.35375  38.1634
 6.43425  39.1446
 6.51475  39.1897
 6.59525  40.0326
 6.67575  40.6154
 6.75625  41.0558
 6.83675  41.5072
 6.91725  42.2635
 6.99775  42.7256
 7.07825  43.5989
 7.15875  43.4827
 7.23925  43.6273
 7.31975  44.0465
 7.40025  44.5612
 7.48075  44.6768
 7.56125  44.7941
 7.64175  44.7505
 7.72225  44.8786
 7.80275  44.8178
 7.88325  44.3442
 7.96375  43.9768
 8.04425  43.782
 8.12475  43.3632
 8.20525  42.3098
 8.28575  41.2628
 8.36625  40.2901
 8.44675  39.3376
 8.52725  37.908
 8.60775  36.6311
 8.68825  35.5384
 8.76875  34.2824
 8.84925  33.2117
 8.92975  32.0754
 9.01025  30.8534
 9.09075  30.108
 9.17125  29.3321
 9.25175  28.379
 9.33225  27.9471
 9.41275  27.2057
 9.49325  26.6154
 9.57375  26.1395
 9.65425  25.792
 9.73475  25.3889
 9.81525  24.981
 9.89575  24.9422
 9.97625  24.493
 10.0567  24.2023
 10.1373  24.0591
 10.2178  24.1514
 10.2982  23.8135
 10.3788  23.4773
 10.4593  23.3426
 10.5397  23.3922
 10.6203  22.9856
 10.7007  22.9737
 10.7813  22.9884
 10.8618  22.8601
 10.9422  22.79
 11.0228  22.8101
 11.1033  22.7011
 11.1837  22.6588
 11.2643  22.6878
 11.3447  22.6152
 11.4253  23.0378
 11.5058  22.8984
 11.5862  25.9327
 11.6668  22.9555
 11.7473  22.6369
 11.8277  22.6074
 11.9083  22.7562
 11.9887  23.5258
 12.0693  30.469
 12.1498  26.6023
 12.2302  22.8671
 12.3108  22.8997
 12.3913  22.784
 12.4718  22.8241
 12.5523  22.9978
 12.6328  22.9078
 12.7133  22.968
 12.7938  23.1476
 12.8742  23.4589
 12.9548  23.8689
 13.0353  24.3006
 13.1158  24.9458
 13.1963  25.827
 13.2768  26.8319
 13.3573  27.9496
 13.4378  28.907
 13.5183  29.5952
 13.5988  29.9886
 13.6793  30.0726
 13.7598  29.8892
 13.8403  30.2162
 13.9208  34.6485
 14.0013  34.4434
 14.0818  28.2633
 14.1623  27.3384
 14.2428  26.6077
 14.3233  26.4731
 14.4038  26.1266
 14.4843  25.7972
 14.5648  25.6769
 14.6453  25.4833
 14.7258  25.3069
 14.8063  24.9894
 14.8868  25.0361
 14.9673  25.0054
 15.0478  25.0414
 15.1283  25.1381
 15.2088  26.4059
 15.2892  24.9745
 15.3698  24.7932
 15.4503  24.6751
 15.5308  24.6019
 15.6113  24.6949
 15.6918  24.731
 15.7723  24.6078
 15.8528  24.8962
 15.9332  24.7528
 16.0138  24.8806
 16.0943  24.8878
 16.1748  24.8619
 16.2553  25.466
 16.3358  25.0322
 16.4163  24.6951
 16.4967  24.749
 16.5773  24.6709
 16.6578  24.7788
 16.7383  24.6273
 16.8188  24.4744
 16.8992  24.4179
 16.9798  24.4065
 17.0603  24.2724
 17.1408  24.4049
 17.2213  24.3173
 17.3017  24.2212
 17.3823  24.2543
 17.4628  24.0595
 17.5433  23.9922
 17.6238  24.0115
 17.7042  23.878
 17.7847  24.0017
 17.8653  23.8355
 17.9458  24.1245
 18.0263  25.3152
 18.1068  26.0472
 18.1872  23.9105
 18.2678  23.8185
 18.3483  23.7597
 18.4288  23.7728
 18.5093  23.5655
 18.5897  23.6298
 18.6703  23.5759
 18.7508  23.5395
 18.8313  23.5268
 18.9118  23.5724
 18.9922  23.6224
 19.0727  23.6268
 19.1533  23.5914
 19.2338  23.6203
 19.3143  23.7536
 19.3948  23.8843
 19.4752  23.7227
 19.5558  23.8912
 19.6363  24.3749
 19.7168  26.8006
 19.7973  25.5753
 19.8777  28.9259
 19.9582  24.2099
 20.0388  23.9651
 20.1193  23.8682
 20.1998  23.8878
 20.2803  23.7997
 20.3607  23.8558
 20.4413  23.9081
 20.5218  23.7807
 20.6023  24.0225
 20.6828  24.2826
 20.7632  25.3851
 20.8438  24.1672
 20.9243  24.0303
 21.0048  23.9619
 21.0853  23.9988
 21.1658  23.9184
 21.2462  23.8565
 21.3268  23.9742
 21.4073  24.0481
 21.4878  24.0103
 21.5683  24.0435
 21.6487  24.0374
 21.7293  24.0616
 21.8098  24.3203
 21.8903  24.1183
 21.9708  24.3073
 22.0512  24.4168
 22.1318  24.3947
 22.2123  24.4147
 22.2928  24.5086
 22.3733  24.6041
 22.4538  24.6834
 22.5343  24.8563
 22.6148  24.9946
 22.6953  25.1143
 22.7758  25.2818
 22.8563  25.4126
 22.9367  26.0485
 22.9943  26.5336