File: test-data-xrd/xrd-map-34-ID-E/Data_0060.chi
F:\20151113_APS_34IDE\\Brian\Particle1\OCV\Data_0060.tif
2-Theta Angle (Degrees)
Intensity
       2000
 0.07475  0.0000000E+00
 0.15525  0.0000000E+00
 0.23575  0.0000000E+00
 0.31625  0.0000000E+00
 0.39675  0.0000000E+00
 0.47725  0.0000000E+00
 0.55775  0.0000000E+00
 0.63825  0.0000000E+00
 0.71875  0.0000000E+00
 0.79925  0.0000000E+00
 0.87975  0.0000000E+00
 0.96025  0.0000000E+00
 1.04075  0.0000000E+00
 1.12125  0.0000000E+00
 1.20175  0.0000000E+00
 1.28225  0.0000000E+00
 1.36275  0.0000000E+00
 1.44325  0.0000000E+00
 1.52375  0.0000000E+00
 1.60425  0.0000000E+00
 1.68475  0.0000000E+00
 1.76525  0.0000000E+00
 1.84575  0.0000000E+00
 1.92625  0.0000000E+00
 2.00675  0.0000000E+00
 2.08725  0.0000000E+00
 2.16775  0.0000000E+00
 2.24825  0.0000000E+00
 2.32875  0.0000000E+00
 2.40925  0.0000000E+00
 2.48975  0.0000000E+00
 2.57025  0.0000000E+00
 2.65075  0.0000000E+00
 2.73125  0.0000000E+00
 2.81175  0.0000000E+00
 2.89225  34.5467
 2.97275  34.6081
 3.05325  34.8371
 3.13375  34.7618
 3.21425  35.255
 3.29475  33.7791
 3.37525  33.8993
 3.45575  34.4459
 3.53625  33.5054
 3.61675  32.4796
 3.69725  32.715
 3.77775  32.6521
 3.85825  31.8911
 3.93875  32.3526
 4.01925  32.3604
 4.09975  31.9361
 4.18025  32.1977
 4.26075  31.66
 4.34125  31.7609
 4.42175  31.9899
 4.50225  32.2524
 4.58275  32.5391
 4.66325  32.5794
 4.74375  32.4033
 4.82425  32.3896
 4.90475  32.3865
 4.98525  32.7244
 5.06575  32.933
 5.14625  33.409
 5.22675  33.6682
 5.30725  34.0092
 5.38775  34.4575
 5.46825  34.7047
 5.54875  34.7959
 5.62925  35.0593
 5.70975  35.8281
 5.79025  36.3932
 5.87075  37.8944
 5.95125  61.616
 6.03175  68.6412
 6.11225  38.1896
 6.19275  37.5
 6.27325  37.5397
 6.35375  38.0249
 6.43425  38.1784
 6.51475  39.0849
 6.59525  39.396
 6.67575  39.7859
 6.75625  40.4216
 6.83675  41.1477
 6.91725  41.5974
 6.99775  42.188
 7.07825  42.6252
 7.15875  43.0049
 7.23925  43.0932
 7.31975  43.4822
 7.40025  43.7864
 7.48075  43.6728
 7.56125  43.7576
 7.64175  44.2302
 7.72225  44.4696
 7.80275  44.0797
 7.88325  43.4125
 7.96375  43.4217
 8.04425  42.8233
 8.12475  42.2996
 8.20525  41.5976
 8.28575  40.7359
 8.36625  39.8014
 8.44675  38.3357
 8.52725  37.4266
 8.60775  35.8299
 8.68825  34.692
 8.76875  33.32
 8.84925  32.6734
 8.92975  31.4754
 9.01025  30.3343
 9.09075  29.758
 9.17125  28.8533
 9.25175  28.1518
 9.33225  27.376
 9.41275  26.7474
 9.49325  26.4248
 9.57375  26.0141
 9.65425  25.398
 9.73475  25.3458
 9.81525  24.9835
 9.89575  24.528
 9.97625  24.5162
 10.0567  24.0607
 10.1373  23.8345
 10.2178  23.7567
 10.2982  23.5341
 10.3788  23.59
 10.4593  23.3245
 10.5397  23.1683
 10.6203  22.8759
 10.7007  22.9767
 10.7813  22.9072
 10.8618  22.7686
 10.9422  22.8263
 11.0228  22.7525
 11.1033  22.5929
 11.1837  22.4656
 11.2643  22.4806
 11.3447  22.478
 11.4253  22.8893
 11.5058  23.0705
 11.5862  28.898
 11.6668  24.0875
 11.7473  22.8574
 11.8277  22.9808
 11.9083  23.4782
 11.9887  32.0869
 12.0693  29.824
 12.1498  58.1054
 12.2302  24.1116
 12.3108  23.3083
 12.3913  22.833
 12.4718  22.9364
 12.5523  22.9501
 12.6328  22.9429
 12.7133  22.9827
 12.7938  23.1327
 12.8742  23.5029
 12.9548  23.6285
 13.0353  24.2539
 13.1158  24.9254
 13.1963  25.6442
 13.2768  26.6902
 13.3573  27.5934
 13.4378  28.5273
 13.5183  29.328
 13.5988  29.6922
 13.6793  29.6932
 13.7598  29.527
 13.8403  29.4645
 13.9208  36.7793
 14.0013  34.9114
 14.0818  27.8151
 14.1623  27.1199
 14.2428  26.679
 14.3233  26.3652
 14.4038  26.0462
 14.4843  25.7576
 14.5648  25.5902
 14.6453  25.3022
 14.7258  25.2872
 14.8063  25.0647
 14.8868  24.9729
 14.9673  24.8264
 15.0478  24.8946
 15.1283  25.6559
 15.2088  29.2174
 15.2892  25.1055
 15.3698  24.845
 15.4503  24.4978
 15.5308  24.5901
 15.6113  24.4393
 15.6918  24.7698
 15.7723  24.6432
 15.8528  24.6553
 15.9332  24.7386
 16.0138  24.6755
 16.0943  24.6539
 16.1748  24.9376
 16.2553  26.327
 16.3358  25.1835
 16.4163  24.6909
 16.4967  24.7119
 16.5773  24.6959
 16.6578  24.564
 16.7383  24.6117
 16.8188  24.4689
 16.8992  24.2672
 16.9798  24.4283
 17.0603  24.241
 17.1408  24.2442
 17.2213  24.1246
 17.3017  24.1332
 17.3823  24.0356
 17.4628  24.1803
 17.5433  23.9761
 17.6238  23.9814
 17.7042  23.888
 17.7847  23.8644
 17.8653  23.9782
 17.9458  24.0664
 18.0263  26.1954
 18.1068  28.3012
 18.1872  24.7992
 18.2678  23.8719
 18.3483  23.8482
 18.4288  23.8127
 18.5093  23.8637
 18.5897  23.7871
 18.6703  23.6087
 18.7508  23.5738
 18.8313  23.5404
 18.9118  23.6123
 18.9922  23.6609
 19.0727  23.5917
 19.1533  23.7367
 19.2338  23.6074
 19.3143  23.6672
 19.3948  23.8259
 19.4752  23.9061
 19.5558  23.9684
 19.6363  24.9139
 19.7168  32.665
 19.7973  26.4556
 19.8777  28.644
 19.9582  24.5545
 20.0388  24.0388
 20.1193  23.9504
 20.1998  23.8377
 20.2803  23.8518
 20.3607  23.7227
 20.4413  24.0808
 20.5218  23.8628
 20.6023  23.913
 20.6828  24.362
 20.7632  26.7205
 20.8438  24.5099
 20.9243  24.0538
 21.0048  24.228
 21.0853  23.9725
 21.1658  23.9193
 21.2462  24.0725
 21.3268  23.9433
 21.4073  23.967
 21.4878  24.0246
 21.5683  24.0687
 21.6487  24.1759
 21.7293  24.1931
 21.8098  24.2016
 21.8903  24.2661
 21.9708  24.2878
 22.0512  24.3282
 22.1318  24.647
 22.2123  24.5012
 22.2928  24.56
 22.3733  24.6606
 22.4538  24.7909
 22.5343  24.847
 22.6148  24.8811
 22.6953  25.1284
 22.7758  25.3217
 22.8563  25.514
 22.9367  26.0007
 22.9943  26.4598