File: test-data-xrd/xrd-map-34-ID-E/Data_0139.chi
F:\20151113_APS_34IDE\\Brian\Particle1\OCV\Data_0139.tif
2-Theta Angle (Degrees)
Intensity
       2000
 0.07475  0.0000000E+00
 0.15525  0.0000000E+00
 0.23575  0.0000000E+00
 0.31625  0.0000000E+00
 0.39675  0.0000000E+00
 0.47725  0.0000000E+00
 0.55775  0.0000000E+00
 0.63825  0.0000000E+00
 0.71875  0.0000000E+00
 0.79925  0.0000000E+00
 0.87975  0.0000000E+00
 0.96025  0.0000000E+00
 1.04075  0.0000000E+00
 1.12125  0.0000000E+00
 1.20175  0.0000000E+00
 1.28225  0.0000000E+00
 1.36275  0.0000000E+00
 1.44325  0.0000000E+00
 1.52375  0.0000000E+00
 1.60425  0.0000000E+00
 1.68475  0.0000000E+00
 1.76525  0.0000000E+00
 1.84575  0.0000000E+00
 1.92625  0.0000000E+00
 2.00675  0.0000000E+00
 2.08725  0.0000000E+00
 2.16775  0.0000000E+00
 2.24825  0.0000000E+00
 2.32875  0.0000000E+00
 2.40925  0.0000000E+00
 2.48975  0.0000000E+00
 2.57025  0.0000000E+00
 2.65075  0.0000000E+00
 2.73125  0.0000000E+00
 2.81175  0.0000000E+00
 2.89225  35.9884
 2.97275  33.8005
 3.05325  35.4168
 3.13375  35.1609
 3.21425  35.5847
 3.29475  34.5757
 3.37525  34.3923
 3.45575  34.1815
 3.53625  34.2004
 3.61675  32.8919
 3.69725  33.1093
 3.77775  33.4675
 3.85825  32.8719
 3.93875  32.3005
 4.01925  32.9261
 4.09975  32.7158
 4.18025  32.3674
 4.26075  32.1135
 4.34125  32.1353
 4.42175  32.1743
 4.50225  32.4712
 4.58275  32.2981
 4.66325  32.9502
 4.74375  32.6133
 4.82425  32.4816
 4.90475  33.1049
 4.98525  32.9162
 5.06575  32.9881
 5.14625  33.2073
 5.22675  34.0801
 5.30725  34.0985
 5.38775  34.3779
 5.46825  34.6839
 5.54875  34.7319
 5.62925  35.3448
 5.70975  35.4931
 5.79025  35.5836
 5.87075  35.8591
 5.95125  37.2667
 6.03175  37.5243
 6.11225  36.7601
 6.19275  36.9197
 6.27325  37.1782
 6.35375  37.8413
 6.43425  38.3974
 6.51475  39.2568
 6.59525  39.5714
 6.67575  40.2483
 6.75625  40.7287
 6.83675  41.5797
 6.91725  42.0692
 6.99775  42.1088
 7.07825  42.6624
 7.15875  43.2032
 7.23925  43.6814
 7.31975  43.6331
 7.40025  44.1256
 7.48075  44.3583
 7.56125  44.7245
 7.64175  44.7195
 7.72225  44.3186
 7.80275  44.2547
 7.88325  43.8379
 7.96375  43.8515
 8.04425  43.3377
 8.12475  42.4997
 8.20525  42.1807
 8.28575  41.3358
 8.36625  40.0741
 8.44675  38.8995
 8.52725  38.0536
 8.60775  36.3685
 8.68825  35.3524
 8.76875  33.9532
 8.84925  32.7401
 8.92975  31.7828
 9.01025  30.8721
 9.09075  29.9675
 9.17125  29.2286
 9.25175  28.3588
 9.33225  27.3424
 9.41275  27.0926
 9.49325  26.4529
 9.57375  25.8107
 9.65425  25.6354
 9.73475  25.2492
 9.81525  25.1676
 9.89575  24.4904
 9.97625  24.354
 10.0567  24.21
 10.1373  23.9752
 10.2178  23.728
 10.2982  23.6899
 10.3788  23.3644
 10.4593  23.1744
 10.5397  22.9527
 10.6203  22.9852
 10.7007  22.6942
 10.7813  22.8545
 10.8618  22.6449
 10.9422  22.5025
 11.0228  22.567
 11.1033  22.4712
 11.1837  22.4796
 11.2643  22.3832
 11.3447  22.4292
 11.4253  22.5036
 11.5058  22.3985
 11.5862  23.0859
 11.6668  22.42
 11.7473  22.2678
 11.8277  22.3239
 11.9083  22.4781
 11.9887  23.5756
 12.0693  22.8219
 12.1498  22.567
 12.2302  22.453
 12.3108  22.3729
 12.3913  22.5271
 12.4718  22.4779
 12.5523  22.4621
 12.6328  22.7232
 12.7133  22.8512
 12.7938  23.0881
 12.8742  23.2589
 12.9548  23.668
 13.0353  24.0153
 13.1158  24.788
 13.1963  25.4897
 13.2768  26.3734
 13.3573  27.6595
 13.4378  28.4204
 13.5183  29.2451
 13.5988  29.686
 13.6793  29.7901
 13.7598  29.3047
 13.8403  28.962
 13.9208  29.4619
 14.0013  29.3182
 14.0818  27.2794
 14.1623  26.8901
 14.2428  26.3481
 14.3233  26.1429
 14.4038  25.8843
 14.4843  25.6589
 14.5648  25.3806
 14.6453  25.1622
 14.7258  25.0736
 14.8063  24.8451
 14.8868  24.6462
 14.9673  24.7395
 15.0478  24.7082
 15.1283  24.4951
 15.2088  24.8212
 15.2892  24.4735
 15.3698  24.3038
 15.4503  24.3726
 15.5308  24.4594
 15.6113  24.2492
 15.6918  24.4974
 15.7723  24.3673
 15.8528  24.5497
 15.9332  24.5119
 16.0138  24.4851
 16.0943  24.5031
 16.1748  24.735
 16.2553  26.3404
 16.3358  24.7578
 16.4163  24.5571
 16.4967  24.4906
 16.5773  24.4413
 16.6578  24.465
 16.7383  24.3433
 16.8188  24.1221
 16.8992  24.1884
 16.9798  24.1904
 17.0603  24.2172
 17.1408  24.0481
 17.2213  24.1451
 17.3017  23.8753
 17.3823  23.7887
 17.4628  23.8473
 17.5433  23.8235
 17.6238  23.705
 17.7042  23.7352
 17.7847  23.6091
 17.8653  23.5612
 17.9458  23.4623
 18.0263  23.664
 18.1068  23.6677
 18.1872  23.4835
 18.2678  23.2954
 18.3483  23.4498
 18.4288  23.4681
 18.5093  23.3114
 18.5897  23.3616
 18.6703  23.3411
 18.7508  23.364
 18.8313  23.3039
 18.9118  23.3554
 18.9922  23.3302
 19.0727  23.3969
 19.1533  23.3488
 19.2338  23.2319
 19.3143  23.3877
 19.3948  23.5459
 19.4752  23.3305
 19.5558  23.3927
 19.6363  23.472
 19.7168  24.0597
 19.7973  23.7777
 19.8777  23.8123
 19.9582  23.3283
 20.0388  23.4998
 20.1193  23.5059
 20.1998  23.4797
 20.2803  23.5248
 20.3607  23.5484
 20.4413  23.5983
 20.5218  23.4626
 20.6023  23.6251
 20.6828  23.7932
 20.7632  24.2309
 20.8438  23.5541
 20.9243  23.7336
 21.0048  23.7556
 21.0853  23.6996
 21.1658  23.6316
 21.2462  23.6659
 21.3268  23.7166
 21.4073  23.7123
 21.4878  23.7859
 21.5683  23.8414
 21.6487  23.8685
 21.7293  23.8397
 21.8098  23.9937
 21.8903  24.0835
 21.9708  24.0801
 22.0512  24.0164
 22.1318  24.2429
 22.2123  24.3751
 22.2928  24.2439
 22.3733  24.3462
 22.4538  24.4225
 22.5343  24.5109
 22.6148  24.7661
 22.6953  25.0154
 22.7758  24.9926
 22.8563  25.2741
 22.9367  25.6181
 22.9943  25.9719