File: test-data-xrd/xrd-map-34-ID-E/Data_0074.chi
F:\20151113_APS_34IDE\\Brian\Particle1\OCV\Data_0074.tif
2-Theta Angle (Degrees)
Intensity
       2000
 0.07475  0.0000000E+00
 0.15525  0.0000000E+00
 0.23575  0.0000000E+00
 0.31625  0.0000000E+00
 0.39675  0.0000000E+00
 0.47725  0.0000000E+00
 0.55775  0.0000000E+00
 0.63825  0.0000000E+00
 0.71875  0.0000000E+00
 0.79925  0.0000000E+00
 0.87975  0.0000000E+00
 0.96025  0.0000000E+00
 1.04075  0.0000000E+00
 1.12125  0.0000000E+00
 1.20175  0.0000000E+00
 1.28225  0.0000000E+00
 1.36275  0.0000000E+00
 1.44325  0.0000000E+00
 1.52375  0.0000000E+00
 1.60425  0.0000000E+00
 1.68475  0.0000000E+00
 1.76525  0.0000000E+00
 1.84575  0.0000000E+00
 1.92625  0.0000000E+00
 2.00675  0.0000000E+00
 2.08725  0.0000000E+00
 2.16775  0.0000000E+00
 2.24825  0.0000000E+00
 2.32875  0.0000000E+00
 2.40925  0.0000000E+00
 2.48975  0.0000000E+00
 2.57025  0.0000000E+00
 2.65075  0.0000000E+00
 2.73125  0.0000000E+00
 2.81175  0.0000000E+00
 2.89225  36.6462
 2.97275  36.0291
 3.05325  34.4662
 3.13375  35.0849
 3.21425  34.7291
 3.29475  33.1938
 3.37525  34.3902
 3.45575  34.3669
 3.53625  33.516
 3.61675  33.1742
 3.69725  32.9964
 3.77775  33.3349
 3.85825  32.7825
 3.93875  32.1903
 4.01925  33.0541
 4.09975  32.8298
 4.18025  32.1541
 4.26075  32.227
 4.34125  32.208
 4.42175  32.2549
 4.50225  32.474
 4.58275  32.8196
 4.66325  33.2185
 4.74375  32.5448
 4.82425  32.425
 4.90475  32.7177
 4.98525  32.7291
 5.06575  33.1381
 5.14625  33.5822
 5.22675  33.6203
 5.30725  33.9503
 5.38775  34.2009
 5.46825  34.5468
 5.54875  34.5518
 5.62925  34.8994
 5.70975  35.1344
 5.79025  35.4936
 5.87075  35.8473
 5.95125  40.4715
 6.03175  40.3325
 6.11225  36.4408
 6.19275  37.0304
 6.27325  37.3311
 6.35375  38.2796
 6.43425  38.454
 6.51475  39.132
 6.59525  39.4553
 6.67575  40.0046
 6.75625  40.3967
 6.83675  41.5939
 6.91725  41.4884
 6.99775  42.3441
 7.07825  42.4917
 7.15875  43.022
 7.23925  42.9468
 7.31975  43.7474
 7.40025  43.6361
 7.48075  43.8647
 7.56125  44.4526
 7.64175  44.3053
 7.72225  44.3151
 7.80275  44.4509
 7.88325  44.0058
 7.96375  43.4208
 8.04425  43.4115
 8.12475  42.5833
 8.20525  41.9525
 8.28575  40.7463
 8.36625  40.1214
 8.44675  38.7697
 8.52725  37.6058
 8.60775  36.1752
 8.68825  35.2136
 8.76875  34.1491
 8.84925  32.9364
 8.92975  31.5401
 9.01025  30.7402
 9.09075  29.9108
 9.17125  29.0247
 9.25175  28.2314
 9.33225  27.5422
 9.41275  26.9181
 9.49325  26.5597
 9.57375  26.0633
 9.65425  25.5538
 9.73475  25.234
 9.81525  24.7721
 9.89575  24.6355
 9.97625  24.4834
 10.0567  24.1947
 10.1373  24.0556
 10.2178  23.8038
 10.2982  23.8843
 10.3788  23.4948
 10.4593  23.1861
 10.5397  23.1792
 10.6203  23.0922
 10.7007  22.8344
 10.7813  22.7932
 10.8618  22.7187
 10.9422  22.8354
 11.0228  22.62
 11.1033  22.6181
 11.1837  22.7677
 11.2643  22.5425
 11.3447  22.6544
 11.4253  22.9345
 11.5058  23.3219
 11.5862  30.6671
 11.6668  24.1774
 11.7473  22.6825
 11.8277  22.5914
 11.9083  22.4677
 11.9887  23.1393
 12.0693  23.5556
 12.1498  23.4057
 12.2302  22.5524
 12.3108  22.766
 12.3913  22.6229
 12.4718  22.6681
 12.5523  22.632
 12.6328  22.8969
 12.7133  23.0924
 12.7938  23.0714
 12.8742  23.367
 12.9548  23.6505
 13.0353  24.1055
 13.1158  24.7948
 13.1963  25.5874
 13.2768  26.4609
 13.3573  27.5144
 13.4378  28.4157
 13.5183  29.335
 13.5988  29.6688
 13.6793  29.7154
 13.7598  29.7576
 13.8403  30.3032
 13.9208  36.1238
 14.0013  38.0242
 14.0818  28.1095
 14.1623  27.144
 14.2428  26.5498
 14.3233  26.2937
 14.4038  26.0093
 14.4843  25.7666
 14.5648  25.6315
 14.6453  25.3539
 14.7258  25.1312
 14.8063  24.9905
 14.8868  24.8717
 14.9673  24.8934
 15.0478  25.0198
 15.1283  25.5248
 15.2088  30.6148
 15.2892  25.0698
 15.3698  24.7883
 15.4503  24.5919
 15.5308  24.5517
 15.6113  24.555
 15.6918  24.5438
 15.7723  24.5446
 15.8528  24.5137
 15.9332  24.6869
 16.0138  24.5817
 16.0943  24.7036
 16.1748  24.766
 16.2553  25.4242
 16.3358  24.939
 16.4163  24.7524
 16.4967  24.693
 16.5773  24.6957
 16.6578  24.5579
 16.7383  24.6078
 16.8188  24.3739
 16.8992  24.3875
 16.9798  24.3633
 17.0603  24.2307
 17.1408  24.2293
 17.2213  24.183
 17.3017  24.2423
 17.3823  23.9847
 17.4628  24.035
 17.5433  23.9862
 17.6238  23.8936
 17.7042  23.9498
 17.7847  24.0103
 17.8653  23.9752
 17.9458  24.6439
 18.0263  35.1202
 18.1068  26.0884
 18.1872  24.3676
 18.2678  23.8575
 18.3483  23.865
 18.4288  23.691
 18.5093  23.6555
 18.5897  23.6565
 18.6703  23.613
 18.7508  23.5974
 18.8313  23.5102
 18.9118  23.5665
 18.9922  23.4268
 19.0727  23.7065
 19.1533  23.5047
 19.2338  23.6212
 19.3143  23.6382
 19.3948  23.8039
 19.4752  24.0058
 19.5558  24.1884
 19.6363  26.3309
 19.7168  32.9269
 19.7973  26.5704
 19.8777  30.4044
 19.9582  24.6686
 20.0388  23.9577
 20.1193  23.9376
 20.1998  23.804
 20.2803  23.8701
 20.3607  23.5991
 20.4413  23.837
 20.5218  23.7984
 20.6023  24.0057
 20.6828  24.7821
 20.7632  27.8676
 20.8438  24.4067
 20.9243  24.1877
 21.0048  23.9824
 21.0853  23.8838
 21.1658  23.8936
 21.2462  23.9453
 21.3268  23.9655
 21.4073  24.0623
 21.4878  24.0152
 21.5683  23.8834
 21.6487  24.2724
 21.7293  24.1401
 21.8098  24.2329
 21.8903  24.1941
 21.9708  24.2531
 22.0512  24.3302
 22.1318  24.4277
 22.2123  24.357
 22.2928  24.5075
 22.3733  24.5497
 22.4538  24.6734
 22.5343  24.7934
 22.6148  24.8833
 22.6953  25.122
 22.7758  25.3115
 22.8563  25.501
 22.9367  26.0182
 22.9943  26.3049