File: test-data-xrd/xrd-map-34-ID-E/Data_0117.chi
F:\20151113_APS_34IDE\\Brian\Particle1\OCV\Data_0117.tif
2-Theta Angle (Degrees)
Intensity
       2000
 0.07475  0.0000000E+00
 0.15525  0.0000000E+00
 0.23575  0.0000000E+00
 0.31625  0.0000000E+00
 0.39675  0.0000000E+00
 0.47725  0.0000000E+00
 0.55775  0.0000000E+00
 0.63825  0.0000000E+00
 0.71875  0.0000000E+00
 0.79925  0.0000000E+00
 0.87975  0.0000000E+00
 0.96025  0.0000000E+00
 1.04075  0.0000000E+00
 1.12125  0.0000000E+00
 1.20175  0.0000000E+00
 1.28225  0.0000000E+00
 1.36275  0.0000000E+00
 1.44325  0.0000000E+00
 1.52375  0.0000000E+00
 1.60425  0.0000000E+00
 1.68475  0.0000000E+00
 1.76525  0.0000000E+00
 1.84575  0.0000000E+00
 1.92625  0.0000000E+00
 2.00675  0.0000000E+00
 2.08725  0.0000000E+00
 2.16775  0.0000000E+00
 2.24825  0.0000000E+00
 2.32875  0.0000000E+00
 2.40925  0.0000000E+00
 2.48975  0.0000000E+00
 2.57025  0.0000000E+00
 2.65075  0.0000000E+00
 2.73125  0.0000000E+00
 2.81175  0.0000000E+00
 2.89225  34.282
 2.97275  35.3082
 3.05325  35.355
 3.13375  35.077
 3.21425  35.216
 3.29475  35.4822
 3.37525  33.714
 3.45575  33.7629
 3.53625  33.5027
 3.61675  33.5656
 3.69725  33.0157
 3.77775  32.2921
 3.85825  32.0483
 3.93875  32.7167
 4.01925  31.8319
 4.09975  32.0164
 4.18025  31.2628
 4.26075  31.351
 4.34125  31.6767
 4.42175  31.7505
 4.50225  31.8335
 4.58275  32.3324
 4.66325  32.4878
 4.74375  32.6018
 4.82425  32.151
 4.90475  32.3033
 4.98525  32.4624
 5.06575  32.9533
 5.14625  33.1201
 5.22675  33.4307
 5.30725  33.7095
 5.38775  33.7774
 5.46825  34.0553
 5.54875  34.5628
 5.62925  34.8625
 5.70975  35.3173
 5.79025  35.6207
 5.87075  36.5468
 5.95125  55.19
 6.03175  54.5342
 6.11225  37.3997
 6.19275  36.8393
 6.27325  36.9981
 6.35375  37.5238
 6.43425  38.1031
 6.51475  38.3664
 6.59525  39.1023
 6.67575  39.9445
 6.75625  40.193
 6.83675  40.8552
 6.91725  41.3832
 6.99775  41.438
 7.07825  42.2287
 7.15875  42.7317
 7.23925  43.0258
 7.31975  43.0943
 7.40025  43.3303
 7.48075  43.7032
 7.56125  43.6883
 7.64175  43.4751
 7.72225  43.5677
 7.80275  43.4222
 7.88325  43.3523
 7.96375  42.9082
 8.04425  42.591
 8.12475  42.1372
 8.20525  41.1472
 8.28575  40.4841
 8.36625  39.6041
 8.44675  38.3373
 8.52725  37.2525
 8.60775  35.7553
 8.68825  34.9037
 8.76875  33.5057
 8.84925  32.3803
 8.92975  31.079
 9.01025  30.0023
 9.09075  29.3365
 9.17125  28.5596
 9.25175  27.8041
 9.33225  27.2707
 9.41275  26.5328
 9.49325  26.3429
 9.57375  25.5342
 9.65425  25.2443
 9.73475  24.9675
 9.81525  24.6822
 9.89575  24.4876
 9.97625  24.2116
 10.0567  23.9321
 10.1373  23.6898
 10.2178  23.5384
 10.2982  23.2551
 10.3788  23.0791
 10.4593  23.5438
 10.5397  22.9679
 10.6203  22.8365
 10.7007  22.5113
 10.7813  22.5687
 10.8618  22.4486
 10.9422  22.4279
 11.0228  22.4125
 11.1033  22.3858
 11.1837  22.0749
 11.2643  22.1542
 11.3447  22.1146
 11.4253  22.5127
 11.5058  22.4369
 11.5862  23.9376
 11.6668  22.63
 11.7473  22.0522
 11.8277  22.2702
 11.9083  22.1889
 11.9887  22.7501
 12.0693  22.8584
 12.1498  22.6474
 12.2302  22.2271
 12.3108  22.2611
 12.3913  22.2868
 12.4718  22.3072
 12.5523  22.557
 12.6328  22.523
 12.7133  22.6988
 12.7938  22.7
 12.8742  23.1264
 12.9548  23.5315
 13.0353  23.8225
 13.1158  24.4819
 13.1963  25.2546
 13.2768  26.2478
 13.3573  27.3505
 13.4378  28.0508
 13.5183  29.0441
 13.5988  29.2472
 13.6793  29.2528
 13.7598  29.1596
 13.8403  28.9548
 13.9208  32.6256
 14.0013  31.9883
 14.0818  27.551
 14.1623  26.8065
 14.2428  26.2257
 14.3233  25.7871
 14.4038  25.6674
 14.4843  25.2701
 14.5648  25.1581
 14.6453  25.059
 14.7258  24.8565
 14.8063  24.6983
 14.8868  24.5977
 14.9673  24.4784
 15.0478  24.4225
 15.1283  24.7234
 15.2088  25.4818
 15.2892  24.3938
 15.3698  24.2205
 15.4503  24.2715
 15.5308  24.1775
 15.6113  24.2517
 15.6918  24.1678
 15.7723  24.2394
 15.8528  24.1976
 15.9332  24.227
 16.0138  24.4495
 16.0943  24.3398
 16.1748  24.49
 16.2553  25.4419
 16.3358  24.5898
 16.4163  24.4978
 16.4967  24.3975
 16.5773  24.2643
 16.6578  24.2641
 16.7383  24.1364
 16.8188  24.0521
 16.8992  23.9782
 16.9798  24.024
 17.0603  23.8223
 17.1408  23.9474
 17.2213  23.8798
 17.3017  23.8287
 17.3823  23.7095
 17.4628  23.5887
 17.5433  23.558
 17.6238  23.542
 17.7042  23.7031
 17.7847  23.3927
 17.8653  23.4943
 17.9458  23.4931
 18.0263  23.932
 18.1068  24.0583
 18.1872  23.4582
 18.2678  23.3211
 18.3483  23.2973
 18.4288  23.2761
 18.5093  23.2308
 18.5897  23.2789
 18.6703  23.2798
 18.7508  23.0845
 18.8313  23.1472
 18.9118  23.2403
 18.9922  23.1439
 19.0727  23.1133
 19.1533  23.1607
 19.2338  23.2512
 19.3143  23.2615
 19.3948  23.277
 19.4752  23.3773
 19.5558  23.5319
 19.6363  24.0529
 19.7168  27.6169
 19.7973  24.6139
 19.8777  24.864
 19.9582  23.5954
 20.0388  23.4295
 20.1193  23.5056
 20.1998  23.3739
 20.2803  23.5073
 20.3607  23.5258
 20.4413  23.4519
 20.5218  23.3839
 20.6023  23.7281
 20.6828  23.9259
 20.7632  25.7318
 20.8438  23.8168
 20.9243  23.7806
 21.0048  23.5974
 21.0853  23.6597
 21.1658  23.5775
 21.2462  23.6341
 21.3268  23.6451
 21.4073  23.6321
 21.4878  23.7037
 21.5683  23.6859
 21.6487  23.6822
 21.7293  23.7835
 21.8098  23.8487
 21.8903  24.0005
 21.9708  23.7898
 22.0512  23.9399
 22.1318  24.212
 22.2123  23.9218
 22.2928  24.1757
 22.3733  24.3132
 22.4538  24.399
 22.5343  24.523
 22.6148  24.6384
 22.6953  24.895
 22.7758  24.9478
 22.8563  25.2412
 22.9367  25.6429
 22.9943  25.958