File: test-data-xrd/xrd-map-34-ID-E/Data_0058.chi
F:\20151113_APS_34IDE\\Brian\Particle1\OCV\Data_0058.tif
2-Theta Angle (Degrees)
Intensity
       2000
 0.07475  0.0000000E+00
 0.15525  0.0000000E+00
 0.23575  0.0000000E+00
 0.31625  0.0000000E+00
 0.39675  0.0000000E+00
 0.47725  0.0000000E+00
 0.55775  0.0000000E+00
 0.63825  0.0000000E+00
 0.71875  0.0000000E+00
 0.79925  0.0000000E+00
 0.87975  0.0000000E+00
 0.96025  0.0000000E+00
 1.04075  0.0000000E+00
 1.12125  0.0000000E+00
 1.20175  0.0000000E+00
 1.28225  0.0000000E+00
 1.36275  0.0000000E+00
 1.44325  0.0000000E+00
 1.52375  0.0000000E+00
 1.60425  0.0000000E+00
 1.68475  0.0000000E+00
 1.76525  0.0000000E+00
 1.84575  0.0000000E+00
 1.92625  0.0000000E+00
 2.00675  0.0000000E+00
 2.08725  0.0000000E+00
 2.16775  0.0000000E+00
 2.24825  0.0000000E+00
 2.32875  0.0000000E+00
 2.40925  0.0000000E+00
 2.48975  0.0000000E+00
 2.57025  0.0000000E+00
 2.65075  0.0000000E+00
 2.73125  0.0000000E+00
 2.81175  0.0000000E+00
 2.89225  35.5107
 2.97275  35.7302
 3.05325  36.6462
 3.13375  36.0965
 3.21425  36.0174
 3.29475  34.6356
 3.37525  35.4744
 3.45575  33.8895
 3.53625  34.1452
 3.61675  32.9616
 3.69725  33.175
 3.77775  34.5875
 3.85825  32.5624
 3.93875  32.5879
 4.01925  32.3188
 4.09975  32.4102
 4.18025  32.3412
 4.26075  32.7516
 4.34125  32.2704
 4.42175  32.3603
 4.50225  32.4405
 4.58275  32.3803
 4.66325  33.1087
 4.74375  32.9972
 4.82425  32.4973
 4.90475  32.6349
 4.98525  32.6199
 5.06575  33.005
 5.14625  33.4661
 5.22675  34.416
 5.30725  34.3203
 5.38775  34.6117
 5.46825  34.9013
 5.54875  35.0141
 5.62925  35.5393
 5.70975  35.888
 5.79025  36.021
 5.87075  36.9989
 5.95125  51.5817
 6.03175  50.2515
 6.11225  37.669
 6.19275  37.501
 6.27325  37.4398
 6.35375  38.1124
 6.43425  38.6689
 6.51475  39.3545
 6.59525  39.6094
 6.67575  40.1524
 6.75625  40.8252
 6.83675  41.5331
 6.91725  41.77
 6.99775  42.2669
 7.07825  42.9757
 7.15875  43.2552
 7.23925  43.663
 7.31975  43.7164
 7.40025  43.6488
 7.48075  44.2623
 7.56125  44.3437
 7.64175  44.3667
 7.72225  44.3639
 7.80275  44.4313
 7.88325  43.9851
 7.96375  43.6103
 8.04425  43.5687
 8.12475  42.7401
 8.20525  41.721
 8.28575  41.0661
 8.36625  39.8981
 8.44675  38.8589
 8.52725  37.5093
 8.60775  36.3046
 8.68825  35.4021
 8.76875  33.9821
 8.84925  32.8935
 8.92975  31.6834
 9.01025  30.6326
 9.09075  29.7715
 9.17125  28.9979
 9.25175  28.1866
 9.33225  27.5661
 9.41275  26.8282
 9.49325  26.5118
 9.57375  26.0626
 9.65425  25.6946
 9.73475  25.2136
 9.81525  25.1747
 9.89575  24.5041
 9.97625  24.2379
 10.0567  24.3965
 10.1373  24.0006
 10.2178  24.2771
 10.2982  23.6812
 10.3788  23.547
 10.4593  23.4516
 10.5397  23.1184
 10.6203  23.1067
 10.7007  23.069
 10.7813  22.9906
 10.8618  22.8303
 10.9422  22.82
 11.0228  22.7738
 11.1033  22.807
 11.1837  22.7017
 11.2643  22.7763
 11.3447  22.7622
 11.4253  23.0478
 11.5058  23.1562
 11.5862  28.4132
 11.6668  24.0661
 11.7473  22.8112
 11.8277  22.7138
 11.9083  22.7697
 11.9887  24.2684
 12.0693  24.5441
 12.1498  24.3156
 12.2302  22.819
 12.3108  22.7326
 12.3913  22.7046
 12.4718  22.682
 12.5523  22.6875
 12.6328  22.8963
 12.7133  23.1257
 12.7938  23.1162
 12.8742  23.5626
 12.9548  23.7676
 13.0353  24.3358
 13.1158  25.0137
 13.1963  25.6488
 13.2768  26.8794
 13.3573  27.9051
 13.4378  28.5169
 13.5183  29.4957
 13.5988  29.9407
 13.6793  29.8582
 13.7598  29.769
 13.8403  29.4128
 13.9208  33.2195
 14.0013  32.1282
 14.0818  27.98
 14.1623  27.2466
 14.2428  26.5982
 14.3233  26.3029
 14.4038  26.1305
 14.4843  26.0095
 14.5648  25.8271
 14.6453  25.5125
 14.7258  25.3563
 14.8063  25.0423
 14.8868  25.1414
 14.9673  25.0746
 15.0478  25.2017
 15.1283  26.1934
 15.2088  31.0882
 15.2892  25.2436
 15.3698  24.9974
 15.4503  24.7751
 15.5308  24.6764
 15.6113  24.6757
 15.6918  24.6927
 15.7723  24.6724
 15.8528  24.7208
 15.9332  24.8786
 16.0138  24.8868
 16.0943  24.9681
 16.1748  25.089
 16.2553  27.1475
 16.3358  25.32
 16.4163  25.0338
 16.4967  24.8068
 16.5773  24.6804
 16.6578  24.6334
 16.7383  24.5932
 16.8188  24.5115
 16.8992  24.439
 16.9798  24.4229
 17.0603  24.168
 17.1408  24.3298
 17.2213  24.2257
 17.3017  24.2442
 17.3823  24.1531
 17.4628  24.0644
 17.5433  24.1678
 17.6238  24.206
 17.7042  24.0409
 17.7847  24.0543
 17.8653  24.0096
 17.9458  24.1001
 18.0263  25.3081
 18.1068  27.931
 18.1872  24.5744
 18.2678  23.9504
 18.3483  23.8937
 18.4288  23.8387
 18.5093  23.7778
 18.5897  23.7976
 18.6703  23.7387
 18.7508  24.2291
 18.8313  23.6169
 18.9118  23.7669
 18.9922  23.5392
 19.0727  23.7622
 19.1533  23.8329
 19.2338  23.6809
 19.3143  23.921
 19.3948  23.857
 19.4752  23.9863
 19.5558  24.1377
 19.6363  24.502
 19.7168  28.3037
 19.7973  27.183
 19.8777  34.6964
 19.9582  25.1657
 20.0388  24.2461
 20.1193  24.0833
 20.1998  24.0085
 20.2803  23.9196
 20.3607  23.9571
 20.4413  24.0237
 20.5218  23.8072
 20.6023  24.0987
 20.6828  24.5823
 20.7632  26.7137
 20.8438  24.6316
 20.9243  24.2061
 21.0048  24.2152
 21.0853  24.0601
 21.1658  23.996
 21.2462  24.1485
 21.3268  24.0998
 21.4073  24.1845
 21.4878  24.2624
 21.5683  24.0568
 21.6487  24.4254
 21.7293  24.4398
 21.8098  24.3869
 21.8903  24.3763
 21.9708  24.5008
 22.0512  24.461
 22.1318  24.4346
 22.2123  24.6905
 22.2928  24.791
 22.3733  24.7089
 22.4538  25.0287
 22.5343  25.0657
 22.6148  25.2412
 22.6953  25.6346
 22.7758  25.5947
 22.8563  26.035
 22.9367  26.6013
 22.9943  28.1002