File: test-data-xrd/xrd-map-34-ID-E/Data_0104.chi
F:\20151113_APS_34IDE\\Brian\Particle1\OCV\Data_0104.tif
2-Theta Angle (Degrees)
Intensity
       2000
 0.07475  0.0000000E+00
 0.15525  0.0000000E+00
 0.23575  0.0000000E+00
 0.31625  0.0000000E+00
 0.39675  0.0000000E+00
 0.47725  0.0000000E+00
 0.55775  0.0000000E+00
 0.63825  0.0000000E+00
 0.71875  0.0000000E+00
 0.79925  0.0000000E+00
 0.87975  0.0000000E+00
 0.96025  0.0000000E+00
 1.04075  0.0000000E+00
 1.12125  0.0000000E+00
 1.20175  0.0000000E+00
 1.28225  0.0000000E+00
 1.36275  0.0000000E+00
 1.44325  0.0000000E+00
 1.52375  0.0000000E+00
 1.60425  0.0000000E+00
 1.68475  0.0000000E+00
 1.76525  0.0000000E+00
 1.84575  0.0000000E+00
 1.92625  0.0000000E+00
 2.00675  0.0000000E+00
 2.08725  0.0000000E+00
 2.16775  0.0000000E+00
 2.24825  0.0000000E+00
 2.32875  0.0000000E+00
 2.40925  0.0000000E+00
 2.48975  0.0000000E+00
 2.57025  0.0000000E+00
 2.65075  0.0000000E+00
 2.73125  0.0000000E+00
 2.81175  0.0000000E+00
 2.89225  35.3644
 2.97275  34.2849
 3.05325  34.8423
 3.13375  34.3683
 3.21425  34.3541
 3.29475  35.3136
 3.37525  34.9603
 3.45575  34.2867
 3.53625  33.9158
 3.61675  32.9923
 3.69725  32.6243
 3.77775  33.4714
 3.85825  32.7412
 3.93875  32.5016
 4.01925  32.7337
 4.09975  32.6712
 4.18025  31.9172
 4.26075  32.2734
 4.34125  32.5532
 4.42175  32.6102
 4.50225  32.581
 4.58275  32.5729
 4.66325  32.9719
 4.74375  32.6069
 4.82425  32.6615
 4.90475  32.566
 4.98525  32.6726
 5.06575  33.2944
 5.14625  33.6863
 5.22675  33.9991
 5.30725  34.1307
 5.38775  34.5294
 5.46825  34.7898
 5.54875  35.299
 5.62925  35.6195
 5.70975  35.8207
 5.79025  35.9739
 5.87075  36.6431
 5.95125  46.3363
 6.03175  44.5584
 6.11225  37.2348
 6.19275  37.3015
 6.27325  37.5765
 6.35375  38.1022
 6.43425  38.6236
 6.51475  39.0806
 6.59525  39.6633
 6.67575  40.215
 6.75625  41.0515
 6.83675  41.4675
 6.91725  41.8893
 6.99775  42.4934
 7.07825  42.5498
 7.15875  43.3975
 7.23925  43.3413
 7.31975  43.8666
 7.40025  43.7385
 7.48075  44.2247
 7.56125  44.2632
 7.64175  44.3744
 7.72225  44.2983
 7.80275  44.0748
 7.88325  43.8226
 7.96375  43.7834
 8.04425  43.2209
 8.12475  42.7204
 8.20525  41.6487
 8.28575  40.9297
 8.36625  39.9655
 8.44675  38.893
 8.52725  37.5773
 8.60775  36.3419
 8.68825  35.2461
 8.76875  33.9098
 8.84925  32.9778
 8.92975  31.6851
 9.01025  30.8315
 9.09075  29.6999
 9.17125  28.9393
 9.25175  28.0887
 9.33225  27.3183
 9.41275  26.92
 9.49325  26.4108
 9.57375  25.9702
 9.65425  25.5862
 9.73475  25.0013
 9.81525  24.9337
 9.89575  24.6169
 9.97625  24.375
 10.0567  24.1186
 10.1373  23.9146
 10.2178  23.7621
 10.2982  23.6267
 10.3788  23.384
 10.4593  23.2482
 10.5397  23.0878
 10.6203  22.8654
 10.7007  22.8188
 10.7813  22.8645
 10.8618  22.6581
 10.9422  22.5858
 11.0228  22.5812
 11.1033  22.6328
 11.1837  22.5121
 11.2643  22.3295
 11.3447  22.5706
 11.4253  22.6548
 11.5058  23.2247
 11.5862  29.4762
 11.6668  24.4017
 11.7473  22.7562
 11.8277  22.6294
 11.9083  22.6667
 11.9887  24.7535
 12.0693  24.6093
 12.1498  24.2853
 12.2302  22.6357
 12.3108  22.6427
 12.3913  22.6465
 12.4718  22.678
 12.5523  22.7116
 12.6328  22.8912
 12.7133  22.9314
 12.7938  23.1705
 12.8742  23.4244
 12.9548  23.8112
 13.0353  24.2017
 13.1158  25.0564
 13.1963  25.7968
 13.2768  26.7314
 13.3573  27.8271
 13.4378  28.6189
 13.5183  29.2732
 13.5988  29.7145
 13.6793  30.0053
 13.7598  30.1018
 13.8403  31.031
 13.9208  53.0978
 14.0013  43.6037
 14.0818  28.9359
 14.1623  27.5291
 14.2428  26.5915
 14.3233  26.2679
 14.4038  26.0829
 14.4843  25.6778
 14.5648  25.5023
 14.6453  25.3511
 14.7258  25.1514
 14.8063  25.0164
 14.8868  24.7204
 14.9673  24.8677
 15.0478  24.8712
 15.1283  25.2306
 15.2088  27.812
 15.2892  24.9105
 15.3698  24.6891
 15.4503  24.6881
 15.5308  24.5077
 15.6113  24.7358
 15.6918  24.6997
 15.7723  24.5259
 15.8528  24.5111
 15.9332  24.5556
 16.0138  24.5363
 16.0943  24.7731
 16.1748  24.9484
 16.2553  26.3454
 16.3358  25.0487
 16.4163  24.79
 16.4967  24.6133
 16.5773  24.5906
 16.6578  24.6485
 16.7383  24.5808
 16.8188  24.4495
 16.8992  24.3073
 16.9798  24.38
 17.0603  24.133
 17.1408  24.1809
 17.2213  24.1345
 17.3017  24.1105
 17.3823  23.972
 17.4628  24.0943
 17.5433  23.9274
 17.6238  23.9687
 17.7042  23.7351
 17.7847  23.7733
 17.8653  23.8157
 17.9458  23.8851
 18.0263  24.7019
 18.1068  28.1177
 18.1872  24.5366
 18.2678  23.6583
 18.3483  23.6829
 18.4288  23.5975
 18.5093  23.7403
 18.5897  23.6135
 18.6703  23.4453
 18.7508  23.4859
 18.8313  23.5475
 18.9118  23.5039
 18.9922  23.4638
 19.0727  23.578
 19.1533  23.5541
 19.2338  23.464
 19.3143  23.5501
 19.3948  23.7148
 19.4752  23.536
 19.5558  23.7457
 19.6363  24.4896
 19.7168  30.9928
 19.7973  26.72
 19.8777  29.6124
 19.9582  24.4282
 20.0388  23.7749
 20.1193  23.8062
 20.1998  23.6363
 20.2803  23.8364
 20.3607  23.8161
 20.4413  23.7948
 20.5218  23.608
 20.6023  23.8922
 20.6828  24.4137
 20.7632  27.2327
 20.8438  24.3753
 20.9243  24.0035
 21.0048  24.1398
 21.0853  23.8455
 21.1658  23.767
 21.2462  23.7994
 21.3268  23.8999
 21.4073  23.909
 21.4878  23.9409
 21.5683  24.0803
 21.6487  24.1175
 21.7293  24.1055
 21.8098  24.1237
 21.8903  24.0971
 21.9708  24.2412
 22.0512  24.3347
 22.1318  24.4304
 22.2123  24.3555
 22.2928  24.3645
 22.3733  24.5921
 22.4538  24.5379
 22.5343  24.7553
 22.6148  24.9069
 22.6953  25.1117
 22.7758  25.3772
 22.8563  25.6015
 22.9367  25.972
 22.9943  26.7356