File: test-data-xrd/xrd-map-34-ID-E/Data_0093.chi
F:\20151113_APS_34IDE\\Brian\Particle1\OCV\Data_0093.tif
2-Theta Angle (Degrees)
Intensity
       2000
 0.07475  0.0000000E+00
 0.15525  0.0000000E+00
 0.23575  0.0000000E+00
 0.31625  0.0000000E+00
 0.39675  0.0000000E+00
 0.47725  0.0000000E+00
 0.55775  0.0000000E+00
 0.63825  0.0000000E+00
 0.71875  0.0000000E+00
 0.79925  0.0000000E+00
 0.87975  0.0000000E+00
 0.96025  0.0000000E+00
 1.04075  0.0000000E+00
 1.12125  0.0000000E+00
 1.20175  0.0000000E+00
 1.28225  0.0000000E+00
 1.36275  0.0000000E+00
 1.44325  0.0000000E+00
 1.52375  0.0000000E+00
 1.60425  0.0000000E+00
 1.68475  0.0000000E+00
 1.76525  0.0000000E+00
 1.84575  0.0000000E+00
 1.92625  0.0000000E+00
 2.00675  0.0000000E+00
 2.08725  0.0000000E+00
 2.16775  0.0000000E+00
 2.24825  0.0000000E+00
 2.32875  0.0000000E+00
 2.40925  0.0000000E+00
 2.48975  0.0000000E+00
 2.57025  0.0000000E+00
 2.65075  0.0000000E+00
 2.73125  0.0000000E+00
 2.81175  0.0000000E+00
 2.89225  34.0152
 2.97275  35.614
 3.05325  36.4631
 3.13375  34.9952
 3.21425  35.038
 3.29475  34.8739
 3.37525  34.5339
 3.45575  33.7751
 3.53625  33.9515
 3.61675  32.6818
 3.69725  33.5218
 3.77775  33.0685
 3.85825  32.8006
 3.93875  32.8704
 4.01925  32.6659
 4.09975  32.1233
 4.18025  32.2613
 4.26075  32.1627
 4.34125  32.4544
 4.42175  31.9576
 4.50225  32.188
 4.58275  32.5327
 4.66325  32.8951
 4.74375  32.4933
 4.82425  32.6674
 4.90475  32.8304
 4.98525  33.0868
 5.06575  33.317
 5.14625  33.6562
 5.22675  34.17
 5.30725  33.9858
 5.38775  34.6909
 5.46825  34.7017
 5.54875  34.9713
 5.62925  35.2117
 5.70975  35.5443
 5.79025  36.0171
 5.87075  36.5284
 5.95125  49.8602
 6.03175  46.7971
 6.11225  37.6462
 6.19275  37.4915
 6.27325  37.8826
 6.35375  38.4472
 6.43425  38.9607
 6.51475  39.1994
 6.59525  39.6039
 6.67575  40.2744
 6.75625  40.8925
 6.83675  41.6072
 6.91725  42.2119
 6.99775  42.5277
 7.07825  43.1506
 7.15875  43.2771
 7.23925  43.7442
 7.31975  43.9779
 7.40025  44.0233
 7.48075  44.1864
 7.56125  44.1919
 7.64175  44.4317
 7.72225  44.327
 7.80275  44.6734
 7.88325  44.2619
 7.96375  43.7854
 8.04425  43.4385
 8.12475  42.8501
 8.20525  41.8367
 8.28575  40.9809
 8.36625  39.9104
 8.44675  38.6736
 8.52725  37.8877
 8.60775  36.5174
 8.68825  35.1813
 8.76875  33.9274
 8.84925  32.9384
 8.92975  31.6335
 9.01025  30.6987
 9.09075  29.8303
 9.17125  28.8968
 9.25175  28.2471
 9.33225  27.7302
 9.41275  26.9559
 9.49325  26.7413
 9.57375  26.0711
 9.65425  25.6849
 9.73475  25.271
 9.81525  25.0049
 9.89575  24.7342
 9.97625  24.3381
 10.0567  24.1437
 10.1373  23.7922
 10.2178  23.7458
 10.2982  23.7869
 10.3788  23.5072
 10.4593  23.3842
 10.5397  23.1437
 10.6203  23.2344
 10.7007  22.9728
 10.7813  22.8876
 10.8618  22.8091
 10.9422  22.7938
 11.0228  22.7191
 11.1033  22.6473
 11.1837  22.6649
 11.2643  22.5937
 11.3447  22.6351
 11.4253  23.0467
 11.5058  23.4344
 11.5862  33.9606
 11.6668  24.2244
 11.7473  22.7772
 11.8277  22.7785
 11.9083  22.9272
 11.9887  27.4987
 12.0693  26.3551
 12.1498  25.2353
 12.2302  22.913
 12.3108  22.8332
 12.3913  22.7746
 12.4718  22.8278
 12.5523  22.6906
 12.6328  22.8597
 12.7133  23.0604
 12.7938  23.3934
 12.8742  23.6124
 12.9548  23.7294
 13.0353  24.321
 13.1158  25.0349
 13.1963  25.814
 13.2768  26.7272
 13.3573  27.81
 13.4378  28.6215
 13.5183  29.6734
 13.5988  29.9952
 13.6793  30.25
 13.7598  30.2925
 13.8403  30.8948
 13.9208  47.9643
 14.0013  60.503
 14.0818  29.4412
 14.1623  27.8661
 14.2428  26.8621
 14.3233  26.4961
 14.4038  26.2729
 14.4843  25.8378
 14.5648  25.5728
 14.6453  25.4641
 14.7258  25.2166
 14.8063  25.2237
 14.8868  25.0376
 14.9673  24.9791
 15.0478  24.9784
 15.1283  25.3855
 15.2088  28.2779
 15.2892  24.9646
 15.3698  24.7364
 15.4503  24.5869
 15.5308  24.674
 15.6113  24.6856
 15.6918  24.827
 15.7723  24.6419
 15.8528  24.6991
 15.9332  24.7022
 16.0138  24.7028
 16.0943  24.7199
 16.1748  24.9306
 16.2553  26.0784
 16.3358  25.0727
 16.4163  24.9188
 16.4967  24.7403
 16.5773  24.7689
 16.6578  24.7084
 16.7383  24.6186
 16.8188  24.5717
 16.8992  24.5372
 16.9798  24.4094
 17.0603  24.2367
 17.1408  24.3324
 17.2213  24.2761
 17.3017  24.2689
 17.3823  24.0622
 17.4628  24.1498
 17.5433  24.221
 17.6238  23.9875
 17.7042  24.1011
 17.7847  24.0207
 17.8653  23.94
 17.9458  24.2842
 18.0263  25.3759
 18.1068  28.5869
 18.1872  25.0727
 18.2678  24.0181
 18.3483  23.8592
 18.4288  23.8546
 18.5093  23.7684
 18.5897  23.7329
 18.6703  23.5679
 18.7508  23.7275
 18.8313  23.5644
 18.9118  23.6305
 18.9922  23.6521
 19.0727  23.7131
 19.1533  23.7716
 19.2338  23.6487
 19.3143  23.7184
 19.3948  23.8254
 19.4752  23.7856
 19.5558  24.0207
 19.6363  24.5517
 19.7168  29.6292
 19.7973  26.1361
 19.8777  27.5634
 19.9582  24.2453
 20.0388  23.9148
 20.1193  23.8081
 20.1998  23.9323
 20.2803  23.8463
 20.3607  23.9883
 20.4413  23.8803
 20.5218  23.8554
 20.6023  24.0937
 20.6828  24.3932
 20.7632  26.6984
 20.8438  24.5366
 20.9243  24.1152
 21.0048  24.2076
 21.0853  24.1552
 21.1658  24.0335
 21.2462  23.9355
 21.3268  23.9125
 21.4073  23.9675
 21.4878  24.2321
 21.5683  24.1197
 21.6487  24.1831
 21.7293  24.2742
 21.8098  24.3027
 21.8903  24.31
 21.9708  24.4122
 22.0512  24.4126
 22.1318  24.7796
 22.2123  24.3715
 22.2928  24.484
 22.3733  24.6255
 22.4538  24.7439
 22.5343  24.8717
 22.6148  24.9489
 22.6953  25.2719
 22.7758  25.3438
 22.8563  25.7975
 22.9367  26.1477
 22.9943  26.5264