File: test-data-xrd/xrd-map-34-ID-E/Data_0120.chi
F:\20151113_APS_34IDE\\Brian\Particle1\OCV\Data_0120.tif
2-Theta Angle (Degrees)
Intensity
       2000
 0.07475  0.0000000E+00
 0.15525  0.0000000E+00
 0.23575  0.0000000E+00
 0.31625  0.0000000E+00
 0.39675  0.0000000E+00
 0.47725  0.0000000E+00
 0.55775  0.0000000E+00
 0.63825  0.0000000E+00
 0.71875  0.0000000E+00
 0.79925  0.0000000E+00
 0.87975  0.0000000E+00
 0.96025  0.0000000E+00
 1.04075  0.0000000E+00
 1.12125  0.0000000E+00
 1.20175  0.0000000E+00
 1.28225  0.0000000E+00
 1.36275  0.0000000E+00
 1.44325  0.0000000E+00
 1.52375  0.0000000E+00
 1.60425  0.0000000E+00
 1.68475  0.0000000E+00
 1.76525  0.0000000E+00
 1.84575  0.0000000E+00
 1.92625  0.0000000E+00
 2.00675  0.0000000E+00
 2.08725  0.0000000E+00
 2.16775  0.0000000E+00
 2.24825  0.0000000E+00
 2.32875  0.0000000E+00
 2.40925  0.0000000E+00
 2.48975  0.0000000E+00
 2.57025  0.0000000E+00
 2.65075  0.0000000E+00
 2.73125  0.0000000E+00
 2.81175  0.0000000E+00
 2.89225  35.8415
 2.97275  35.9096
 3.05325  34.6461
 3.13375  34.6682
 3.21425  33.4091
 3.29475  33.5285
 3.37525  33.9212
 3.45575  34.1464
 3.53625  33.5808
 3.61675  33.1398
 3.69725  33.041
 3.77775  33.3217
 3.85825  32.632
 3.93875  32.5715
 4.01925  32.4343
 4.09975  32.4048
 4.18025  31.8569
 4.26075  31.7666
 4.34125  32.3135
 4.42175  32.4185
 4.50225  32.1726
 4.58275  32.1782
 4.66325  32.8864
 4.74375  32.478
 4.82425  32.5617
 4.90475  32.3552
 4.98525  32.6628
 5.06575  33.4427
 5.14625  33.6599
 5.22675  33.8778
 5.30725  33.9946
 5.38775  34.1654
 5.46825  34.6935
 5.54875  34.7193
 5.62925  34.8009
 5.70975  34.9321
 5.79025  35.3669
 5.87075  35.545
 5.95125  36.6881
 6.03175  36.5941
 6.11225  36.0798
 6.19275  36.6897
 6.27325  37.2547
 6.35375  37.3723
 6.43425  38.3172
 6.51475  38.9805
 6.59525  39.2692
 6.67575  39.932
 6.75625  40.4832
 6.83675  41.4612
 6.91725  41.5781
 6.99775  41.671
 7.07825  42.3346
 7.15875  42.8978
 7.23925  43.2868
 7.31975  43.5065
 7.40025  43.6468
 7.48075  43.4584
 7.56125  43.7766
 7.64175  44.0257
 7.72225  43.7591
 7.80275  44.1632
 7.88325  43.8116
 7.96375  43.1752
 8.04425  42.8079
 8.12475  42.1169
 8.20525  41.5396
 8.28575  40.38
 8.36625  39.556
 8.44675  38.313
 8.52725  37.3935
 8.60775  36.0643
 8.68825  34.7521
 8.76875  33.6275
 8.84925  32.6711
 8.92975  31.2726
 9.01025  30.2655
 9.09075  29.501
 9.17125  28.8617
 9.25175  27.7615
 9.33225  26.9933
 9.41275  26.5238
 9.49325  26.2131
 9.57375  25.6447
 9.65425  24.9783
 9.73475  24.8103
 9.81525  24.552
 9.89575  24.1431
 9.97625  24.1425
 10.0567  24.0004
 10.1373  23.5731
 10.2178  23.366
 10.2982  23.1732
 10.3788  23.1339
 10.4593  22.8818
 10.5397  22.8894
 10.6203  22.7939
 10.7007  22.6125
 10.7813  22.6942
 10.8618  22.4326
 10.9422  22.4384
 11.0228  22.2898
 11.1033  22.218
 11.1837  22.0989
 11.2643  22.188
 11.3447  22.01
 11.4253  22.0636
 11.5058  22.0284
 11.5862  22.568
 11.6668  22.2133
 11.7473  21.8215
 11.8277  22.0441
 11.9083  22.1219
 11.9887  22.2366
 12.0693  22.5391
 12.1498  22.343
 12.2302  21.9747
 12.3108  22.2009
 12.3913  22.1885
 12.4718  22.2484
 12.5523  22.3747
 12.6328  22.5775
 12.7133  22.662
 12.7938  22.8251
 12.8742  22.9327
 12.9548  23.3304
 13.0353  23.6754
 13.1158  24.3248
 13.1963  25.3093
 13.2768  26.3185
 13.3573  27.4185
 13.4378  28.1907
 13.5183  28.879
 13.5988  29.2785
 13.6793  29.2903
 13.7598  28.8477
 13.8403  28.4578
 13.9208  28.6506
 14.0013  27.9716
 14.0818  26.9844
 14.1623  26.6498
 14.2428  26.0574
 14.3233  25.8541
 14.4038  25.6017
 14.4843  25.201
 14.5648  25.2162
 14.6453  24.9748
 14.7258  24.7812
 14.8063  24.6822
 14.8868  24.4476
 14.9673  24.419
 15.0478  24.6012
 15.1283  24.3706
 15.2088  24.4473
 15.2892  24.2431
 15.3698  24.1996
 15.4503  24.0831
 15.5308  24.0208
 15.6113  24.104
 15.6918  24.2299
 15.7723  24.2177
 15.8528  24.2136
 15.9332  24.4176
 16.0138  24.3
 16.0943  24.3318
 16.1748  24.5043
 16.2553  24.7916
 16.3358  24.5664
 16.4163  24.4061
 16.4967  24.1822
 16.5773  24.4251
 16.6578  24.3032
 16.7383  24.1716
 16.8188  24.11
 16.8992  24.1625
 16.9798  23.8818
 17.0603  23.8343
 17.1408  23.8486
 17.2213  23.8358
 17.3017  23.6026
 17.3823  23.6631
 17.4628  23.552
 17.5433  23.6299
 17.6238  23.6098
 17.7042  23.4933
 17.7847  23.4079
 17.8653  23.3339
 17.9458  23.3125
 18.0263  23.3874
 18.1068  23.5377
 18.1872  23.232
 18.2678  23.1454
 18.3483  23.2781
 18.4288  23.2288
 18.5093  23.208
 18.5897  23.1445
 18.6703  23.0967
 18.7508  23.068
 18.8313  23.0665
 18.9118  22.9811
 18.9922  22.9033
 19.0727  23.1793
 19.1533  23.0603
 19.2338  23.1963
 19.3143  23.2512
 19.3948  23.1413
 19.4752  23.0469
 19.5558  23.2051
 19.6363  23.3066
 19.7168  23.7001
 19.7973  23.4223
 19.8777  23.5483
 19.9582  23.2751
 20.0388  23.2138
 20.1193  23.3586
 20.1998  23.3906
 20.2803  23.256
 20.3607  23.2255
 20.4413  23.3699
 20.5218  23.3114
 20.6023  23.4005
 20.6828  23.3989
 20.7632  23.7539
 20.8438  23.4542
 20.9243  23.5794
 21.0048  23.481
 21.0853  23.5934
 21.1658  23.5854
 21.2462  23.5766
 21.3268  23.4599
 21.4073  23.8736
 21.4878  23.7785
 21.5683  23.6438
 21.6487  23.777
 21.7293  23.808
 21.8098  23.7646
 21.8903  23.7147
 21.9708  23.7378
 22.0512  23.9013
 22.1318  24.1094
 22.2123  23.9934
 22.2928  24.0984
 22.3733  24.0929
 22.4538  24.2929
 22.5343  24.4948
 22.6148  24.5175
 22.6953  24.9898
 22.7758  24.906
 22.8563  25.1672
 22.9367  25.451
 22.9943  25.9305