File: test-data-xrd/xrd-map-34-ID-E/Data_0118.chi
F:\20151113_APS_34IDE\\Brian\Particle1\OCV\Data_0118.tif
2-Theta Angle (Degrees)
Intensity
       2000
 0.07475  0.0000000E+00
 0.15525  0.0000000E+00
 0.23575  0.0000000E+00
 0.31625  0.0000000E+00
 0.39675  0.0000000E+00
 0.47725  0.0000000E+00
 0.55775  0.0000000E+00
 0.63825  0.0000000E+00
 0.71875  0.0000000E+00
 0.79925  0.0000000E+00
 0.87975  0.0000000E+00
 0.96025  0.0000000E+00
 1.04075  0.0000000E+00
 1.12125  0.0000000E+00
 1.20175  0.0000000E+00
 1.28225  0.0000000E+00
 1.36275  0.0000000E+00
 1.44325  0.0000000E+00
 1.52375  0.0000000E+00
 1.60425  0.0000000E+00
 1.68475  0.0000000E+00
 1.76525  0.0000000E+00
 1.84575  0.0000000E+00
 1.92625  0.0000000E+00
 2.00675  0.0000000E+00
 2.08725  0.0000000E+00
 2.16775  0.0000000E+00
 2.24825  0.0000000E+00
 2.32875  0.0000000E+00
 2.40925  0.0000000E+00
 2.48975  0.0000000E+00
 2.57025  0.0000000E+00
 2.65075  0.0000000E+00
 2.73125  0.0000000E+00
 2.81175  0.0000000E+00
 2.89225  34.3554
 2.97275  35.9269
 3.05325  36.4094
 3.13375  34.4114
 3.21425  34.3073
 3.29475  33.8811
 3.37525  34.4969
 3.45575  34.1769
 3.53625  33.5062
 3.61675  33.0126
 3.69725  33.1289
 3.77775  33.0637
 3.85825  32.1733
 3.93875  33.1495
 4.01925  32.1777
 4.09975  32.1653
 4.18025  32.0634
 4.26075  32.2525
 4.34125  31.8104
 4.42175  31.8048
 4.50225  31.9252
 4.58275  32.3455
 4.66325  32.8796
 4.74375  32.3893
 4.82425  32.1952
 4.90475  32.4626
 4.98525  32.6849
 5.06575  33.3809
 5.14625  33.6771
 5.22675  33.6686
 5.30725  33.7769
 5.38775  34.1834
 5.46825  34.2914
 5.54875  34.1252
 5.62925  34.4479
 5.70975  34.9859
 5.79025  35.2086
 5.87075  35.2723
 5.95125  38.6275
 6.03175  38.5955
 6.11225  36.4011
 6.19275  36.5818
 6.27325  37.0568
 6.35375  37.6063
 6.43425  38.1159
 6.51475  38.5463
 6.59525  38.7748
 6.67575  39.5716
 6.75625  39.9942
 6.83675  40.6986
 6.91725  41.1832
 6.99775  41.8549
 7.07825  41.9837
 7.15875  42.7898
 7.23925  43.0937
 7.31975  43.2325
 7.40025  43.786
 7.48075  43.5582
 7.56125  43.3499
 7.64175  43.7243
 7.72225  43.9883
 7.80275  43.7422
 7.88325  43.372
 7.96375  42.9055
 8.04425  42.5506
 8.12475  41.973
 8.20525  41.1767
 8.28575  40.3443
 8.36625  39.5057
 8.44675  38.4045
 8.52725  37.1385
 8.60775  35.6208
 8.68825  34.6014
 8.76875  33.2899
 8.84925  32.1313
 8.92975  31.3581
 9.01025  30.0612
 9.09075  29.2236
 9.17125  28.5405
 9.25175  27.8293
 9.33225  27.2593
 9.41275  26.8012
 9.49325  26.4328
 9.57375  25.4627
 9.65425  25.0787
 9.73475  24.889
 9.81525  24.4979
 9.89575  24.4402
 9.97625  24.2579
 10.0567  23.7915
 10.1373  23.4804
 10.2178  23.4463
 10.2982  23.2209
 10.3788  22.9313
 10.4593  22.9279
 10.5397  22.6947
 10.6203  22.7535
 10.7007  22.6401
 10.7813  22.3673
 10.8618  22.4699
 10.9422  22.4123
 11.0228  22.2143
 11.1033  22.161
 11.1837  22.1288
 11.2643  22.0904
 11.3447  21.9365
 11.4253  22.2323
 11.5058  22.1615
 11.5862  23.4887
 11.6668  22.2579
 11.7473  21.9514
 11.8277  21.984
 11.9083  22.0724
 11.9887  22.3366
 12.0693  22.3842
 12.1498  22.1542
 12.2302  22.2533
 12.3108  22.1049
 12.3913  22.2145
 12.4718  22.1942
 12.5523  22.3705
 12.6328  22.4976
 12.7133  22.4465
 12.7938  22.4994
 12.8742  22.8936
 12.9548  23.2306
 13.0353  23.6149
 13.1158  24.4514
 13.1963  25.1891
 13.2768  26.1604
 13.3573  27.1214
 13.4378  28.1101
 13.5183  28.8127
 13.5988  29.0998
 13.6793  29.2167
 13.7598  29.0262
 13.8403  28.6911
 13.9208  31.051
 14.0013  31.3703
 14.0818  27.2406
 14.1623  26.6749
 14.2428  26.1182
 14.3233  25.7921
 14.4038  25.5891
 14.4843  25.1482
 14.5648  25.1533
 14.6453  24.8502
 14.7258  24.771
 14.8063  24.6588
 14.8868  24.4714
 14.9673  24.3762
 15.0478  24.2712
 15.1283  24.3154
 15.2088  25.1069
 15.2892  24.285
 15.3698  24.2236
 15.4503  23.9961
 15.5308  24.1519
 15.6113  24.026
 15.6918  24.1323
 15.7723  24.055
 15.8528  24.1221
 15.9332  24.1314
 16.0138  24.2346
 16.0943  24.3976
 16.1748  24.5112
 16.2553  25.2843
 16.3358  24.5745
 16.4163  24.3381
 16.4967  24.2016
 16.5773  24.3683
 16.6578  24.2415
 16.7383  24.0498
 16.8188  24.0818
 16.8992  23.9979
 16.9798  23.9468
 17.0603  23.6949
 17.1408  23.7272
 17.2213  23.6337
 17.3017  23.7831
 17.3823  23.5352
 17.4628  23.5117
 17.5433  23.394
 17.6238  23.5787
 17.7042  23.5116
 17.7847  23.3344
 17.8653  23.2159
 17.9458  23.253
 18.0263  23.4402
 18.1068  23.5911
 18.1872  23.1639
 18.2678  23.2251
 18.3483  23.1561
 18.4288  23.1267
 18.5093  23.0068
 18.5897  23.1554
 18.6703  22.9854
 18.7508  23.157
 18.8313  23.1495
 18.9118  23.1577
 18.9922  23.0587
 19.0727  23.1942
 19.1533  23.2255
 19.2338  23.0381
 19.3143  23.1542
 19.3948  23.162
 19.4752  23.1121
 19.5558  23.2603
 19.6363  23.3867
 19.7168  24.2221
 19.7973  24.0152
 19.8777  24.3411
 19.9582  23.2182
 20.0388  23.2374
 20.1193  23.3133
 20.1998  23.1436
 20.2803  23.2104
 20.3607  23.218
 20.4413  23.2975
 20.5218  23.2777
 20.6023  23.44
 20.6828  23.5769
 20.7632  24.3542
 20.8438  23.7018
 20.9243  23.4797
 21.0048  23.408
 21.0853  23.4262
 21.1658  23.3818
 21.2462  23.4144
 21.3268  23.389
 21.4073  23.3989
 21.4878  23.6359
 21.5683  23.7343
 21.6487  23.6459
 21.7293  23.8129
 21.8098  23.7108
 21.8903  23.6978
 21.9708  23.7125
 22.0512  23.8933
 22.1318  23.9792
 22.2123  23.9293
 22.2928  24.1332
 22.3733  24.0728
 22.4538  24.179
 22.5343  24.3822
 22.6148  24.4053
 22.6953  24.642
 22.7758  24.7027
 22.8563  25.0262
 22.9367  25.3743
 22.9943  25.606