File: test-data-xrd/xrd-map-34-ID-E/Data_0012.chi
F:\20151113_APS_34IDE\\Brian\Particle1\OCV\Data_0012.tif
2-Theta Angle (Degrees)
Intensity
       2000
 0.07475  0.0000000E+00
 0.15525  0.0000000E+00
 0.23575  0.0000000E+00
 0.31625  0.0000000E+00
 0.39675  0.0000000E+00
 0.47725  0.0000000E+00
 0.55775  0.0000000E+00
 0.63825  0.0000000E+00
 0.71875  0.0000000E+00
 0.79925  0.0000000E+00
 0.87975  0.0000000E+00
 0.96025  0.0000000E+00
 1.04075  0.0000000E+00
 1.12125  0.0000000E+00
 1.20175  0.0000000E+00
 1.28225  0.0000000E+00
 1.36275  0.0000000E+00
 1.44325  0.0000000E+00
 1.52375  0.0000000E+00
 1.60425  0.0000000E+00
 1.68475  0.0000000E+00
 1.76525  0.0000000E+00
 1.84575  0.0000000E+00
 1.92625  0.0000000E+00
 2.00675  0.0000000E+00
 2.08725  0.0000000E+00
 2.16775  0.0000000E+00
 2.24825  0.0000000E+00
 2.32875  0.0000000E+00
 2.40925  0.0000000E+00
 2.48975  0.0000000E+00
 2.57025  0.0000000E+00
 2.65075  0.0000000E+00
 2.73125  0.0000000E+00
 2.81175  0.0000000E+00
 2.89225  35.4202
 2.97275  34.8239
 3.05325  36.7252
 3.13375  36.2734
 3.21425  35.5468
 3.29475  34.5545
 3.37525  35.5238
 3.45575  34.6271
 3.53625  33.9101
 3.61675  33.7212
 3.69725  33.38
 3.77775  33.1895
 3.85825  33.0762
 3.93875  32.9531
 4.01925  32.9393
 4.09975  32.7703
 4.18025  32.3442
 4.26075  32.4551
 4.34125  33.2351
 4.42175  32.784
 4.50225  32.489
 4.58275  33.094
 4.66325  32.7903
 4.74375  32.8413
 4.82425  32.6421
 4.90475  32.8506
 4.98525  32.9969
 5.06575  33.8353
 5.14625  33.7004
 5.22675  34.3759
 5.30725  34.1959
 5.38775  34.9389
 5.46825  35.0805
 5.54875  35.0598
 5.62925  35.2915
 5.70975  35.9495
 5.79025  35.8297
 5.87075  36.0072
 5.95125  40.5714
 6.03175  38.8998
 6.11225  36.9389
 6.19275  37.3131
 6.27325  37.6381
 6.35375  38.2105
 6.43425  38.8708
 6.51475  39.364
 6.59525  40.034
 6.67575  40.3176
 6.75625  40.8589
 6.83675  41.8973
 6.91725  42.3556
 6.99775  42.961
 7.07825  42.847
 7.15875  43.7065
 7.23925  43.7697
 7.31975  44.0756
 7.40025  44.9073
 7.48075  45.0079
 7.56125  45.0896
 7.64175  44.6574
 7.72225  44.817
 7.80275  44.9519
 7.88325  44.4896
 7.96375  44.2759
 8.04425  43.6401
 8.12475  43.1473
 8.20525  42.4533
 8.28575  41.7179
 8.36625  40.6497
 8.44675  39.4223
 8.52725  38.2691
 8.60775  36.977
 8.68825  35.7096
 8.76875  34.5311
 8.84925  33.3765
 8.92975  32.1209
 9.01025  31.0868
 9.09075  30.2066
 9.17125  29.5267
 9.25175  28.7469
 9.33225  27.842
 9.41275  27.508
 9.49325  26.7042
 9.57375  26.2096
 9.65425  25.8791
 9.73475  25.7122
 9.81525  25.1752
 9.89575  24.9003
 9.97625  24.8267
 10.0567  24.4825
 10.1373  24.1822
 10.2178  24.0867
 10.2982  23.8343
 10.3788  23.5427
 10.4593  23.4781
 10.5397  23.2496
 10.6203  23.306
 10.7007  23.1573
 10.7813  23.1054
 10.8618  23.0161
 10.9422  22.8899
 11.0228  22.7711
 11.1033  22.8508
 11.1837  22.7697
 11.2643  22.5919
 11.3447  22.5293
 11.4253  22.761
 11.5058  22.7612
 11.5862  23.693
 11.6668  22.6843
 11.7473  22.5815
 11.8277  22.6173
 11.9083  22.5978
 11.9887  22.8154
 12.0693  22.7353
 12.1498  22.705
 12.2302  22.5337
 12.3108  22.6154
 12.3913  22.72
 12.4718  22.711
 12.5523  22.8308
 12.6328  23.0691
 12.7133  23.2076
 12.7938  23.2556
 12.8742  23.5825
 12.9548  23.8447
 13.0353  24.2583
 13.1158  25.1241
 13.1963  25.7601
 13.2768  26.8047
 13.3573  28.1224
 13.4378  28.8054
 13.5183  29.6141
 13.5988  29.9458
 13.6793  29.9408
 13.7598  29.3762
 13.8403  29.1431
 13.9208  29.6884
 14.0013  29.2164
 14.0818  27.6611
 14.1623  27.0938
 14.2428  26.7765
 14.3233  26.2238
 14.4038  26.14
 14.4843  25.7184
 14.5648  25.6005
 14.6453  25.416
 14.7258  25.2761
 14.8063  25.1852
 14.8868  24.9944
 14.9673  24.9747
 15.0478  24.8079
 15.1283  24.8827
 15.2088  25.4213
 15.2892  24.8093
 15.3698  24.8031
 15.4503  24.641
 15.5308  24.5936
 15.6113  24.6992
 15.6918  24.706
 15.7723  24.6957
 15.8528  24.6613
 15.9332  24.7493
 16.0138  24.7693
 16.0943  24.9714
 16.1748  25.1803
 16.2553  30.6236
 16.3358  25.5292
 16.4163  25.0371
 16.4967  24.935
 16.5773  24.8002
 16.6578  24.7664
 16.7383  24.7149
 16.8188  24.615
 16.8992  24.6509
 16.9798  24.3535
 17.0603  24.155
 17.1408  24.3734
 17.2213  24.2556
 17.3017  24.1746
 17.3823  24.1161
 17.4628  24.1404
 17.5433  23.9685
 17.6238  24.0007
 17.7042  23.7981
 17.7847  23.6958
 17.8653  23.8326
 17.9458  23.7666
 18.0263  23.8609
 18.1068  24.2566
 18.1872  23.7457
 18.2678  23.7847
 18.3483  23.7152
 18.4288  23.694
 18.5093  23.6252
 18.5897  23.6911
 18.6703  23.5268
 18.7508  23.5051
 18.8313  23.5581
 18.9118  23.5461
 18.9922  23.4946
 19.0727  23.6552
 19.1533  23.5248
 19.2338  23.6874
 19.3143  23.6418
 19.3948  23.7263
 19.4752  23.47
 19.5558  23.7098
 19.6363  23.8293
 19.7168  24.0583
 19.7973  23.9057
 19.8777  24.2945
 19.9582  23.7236
 20.0388  23.742
 20.1193  23.7325
 20.1998  23.819
 20.2803  23.7998
 20.3607  23.7809
 20.4413  23.7817
 20.5218  23.7793
 20.6023  23.8336
 20.6828  23.901
 20.7632  24.1929
 20.8438  23.8379
 20.9243  23.9254
 21.0048  23.8989
 21.0853  24.0017
 21.1658  23.9234
 21.2462  23.9925
 21.3268  23.9982
 21.4073  23.9935
 21.4878  24.0737
 21.5683  24.0621
 21.6487  24.1298
 21.7293  24.264
 21.8098  24.151
 21.8903  24.313
 21.9708  24.2543
 22.0512  24.3318
 22.1318  24.6505
 22.2123  24.2703
 22.2928  24.5252
 22.3733  24.6115
 22.4538  24.7209
 22.5343  24.8531
 22.6148  24.9572
 22.6953  25.2289
 22.7758  25.3743
 22.8563  25.5868
 22.9367  25.9744
 22.9943  26.1924