File: test-data-xrd/xrd-map-34-ID-E/Data_0018.chi
F:\20151113_APS_34IDE\\Brian\Particle1\OCV\Data_0018.tif
2-Theta Angle (Degrees)
Intensity
       2000
 0.07475  0.0000000E+00
 0.15525  0.0000000E+00
 0.23575  0.0000000E+00
 0.31625  0.0000000E+00
 0.39675  0.0000000E+00
 0.47725  0.0000000E+00
 0.55775  0.0000000E+00
 0.63825  0.0000000E+00
 0.71875  0.0000000E+00
 0.79925  0.0000000E+00
 0.87975  0.0000000E+00
 0.96025  0.0000000E+00
 1.04075  0.0000000E+00
 1.12125  0.0000000E+00
 1.20175  0.0000000E+00
 1.28225  0.0000000E+00
 1.36275  0.0000000E+00
 1.44325  0.0000000E+00
 1.52375  0.0000000E+00
 1.60425  0.0000000E+00
 1.68475  0.0000000E+00
 1.76525  0.0000000E+00
 1.84575  0.0000000E+00
 1.92625  0.0000000E+00
 2.00675  0.0000000E+00
 2.08725  0.0000000E+00
 2.16775  0.0000000E+00
 2.24825  0.0000000E+00
 2.32875  0.0000000E+00
 2.40925  0.0000000E+00
 2.48975  0.0000000E+00
 2.57025  0.0000000E+00
 2.65075  0.0000000E+00
 2.73125  0.0000000E+00
 2.81175  0.0000000E+00
 2.89225  34.7097
 2.97275  35.7104
 3.05325  36.4125
 3.13375  36.0861
 3.21425  35.6799
 3.29475  35.1888
 3.37525  34.1148
 3.45575  34.0705
 3.53625  33.9736
 3.61675  32.802
 3.69725  33.5248
 3.77775  33.1796
 3.85825  32.4733
 3.93875  31.9283
 4.01925  32.4875
 4.09975  32.1754
 4.18025  32.3231
 4.26075  32.2662
 4.34125  32.6984
 4.42175  32.1892
 4.50225  32.5139
 4.58275  32.5382
 4.66325  32.9116
 4.74375  32.5696
 4.82425  32.5986
 4.90475  32.5046
 4.98525  32.8718
 5.06575  33.3884
 5.14625  33.7411
 5.22675  33.7454
 5.30725  34.1866
 5.38775  34.5366
 5.46825  34.3632
 5.54875  34.6021
 5.62925  34.9221
 5.70975  35.3651
 5.79025  35.7182
 5.87075  36.3066
 5.95125  43.9373
 6.03175  39.3
 6.11225  36.8446
 6.19275  37.2082
 6.27325  37.7957
 6.35375  37.8655
 6.43425  38.4807
 6.51475  39.0935
 6.59525  39.6937
 6.67575  40.1111
 6.75625  40.7325
 6.83675  41.4858
 6.91725  41.8135
 6.99775  42.2095
 7.07825  42.7198
 7.15875  42.897
 7.23925  43.6128
 7.31975  43.8171
 7.40025  44.5694
 7.48075  44.3243
 7.56125  44.4545
 7.64175  44.5029
 7.72225  44.3816
 7.80275  44.4209
 7.88325  44.1689
 7.96375  44.2116
 8.04425  43.5166
 8.12475  42.7409
 8.20525  42.0554
 8.28575  41.3293
 8.36625  40.3891
 8.44675  39.1258
 8.52725  38.0624
 8.60775  36.5131
 8.68825  35.4737
 8.76875  34.179
 8.84925  33.0909
 8.92975  31.9176
 9.01025  30.9475
 9.09075  30.0044
 9.17125  29.2731
 9.25175  28.3619
 9.33225  27.8164
 9.41275  27.0529
 9.49325  26.7559
 9.57375  26.1154
 9.65425  25.9228
 9.73475  25.3654
 9.81525  25.1517
 9.89575  24.8248
 9.97625  24.3651
 10.0567  24.2768
 10.1373  24.1261
 10.2178  23.9113
 10.2982  23.7533
 10.3788  23.5315
 10.4593  23.4652
 10.5397  23.1974
 10.6203  23.2776
 10.7007  23.1218
 10.7813  22.835
 10.8618  22.7217
 10.9422  22.7539
 11.0228  22.6185
 11.1033  22.7783
 11.1837  22.7071
 11.2643  22.5992
 11.3447  22.5796
 11.4253  23.215
 11.5058  23.0511
 11.5862  26.896
 11.6668  23.6961
 11.7473  22.6741
 11.8277  22.7657
 11.9083  22.7761
 11.9887  23.8712
 12.0693  28.0302
 12.1498  25.6631
 12.2302  22.9761
 12.3108  22.7444
 12.3913  22.8096
 12.4718  22.716
 12.5523  22.7861
 12.6328  22.9922
 12.7133  23.083
 12.7938  23.2874
 12.8742  23.5956
 12.9548  23.9559
 13.0353  24.2793
 13.1158  25.0488
 13.1963  25.8713
 13.2768  26.7338
 13.3573  27.8266
 13.4378  28.7884
 13.5183  29.3573
 13.5988  29.6958
 13.6793  29.8646
 13.7598  29.6183
 13.8403  29.5733
 13.9208  35.9376
 14.0013  33.1888
 14.0818  27.9455
 14.1623  27.2953
 14.2428  26.5923
 14.3233  26.2625
 14.4038  26.0522
 14.4843  25.8714
 14.5648  25.5831
 14.6453  25.4887
 14.7258  25.2284
 14.8063  25.2455
 14.8868  25.0121
 14.9673  24.8486
 15.0478  24.8486
 15.1283  24.8476
 15.2088  26.0952
 15.2892  24.7223
 15.3698  24.6982
 15.4503  24.6782
 15.5308  24.6803
 15.6113  24.6439
 15.6918  24.5784
 15.7723  24.7232
 15.8528  24.5768
 15.9332  24.5574
 16.0138  24.7044
 16.0943  24.8579
 16.1748  24.9348
 16.2553  25.725
 16.3358  24.9463
 16.4163  24.6139
 16.4967  24.6895
 16.5773  24.5127
 16.6578  24.5346
 16.7383  24.5431
 16.8188  24.6402
 16.8992  24.4731
 16.9798  24.3284
 17.0603  24.2832
 17.1408  24.1212
 17.2213  24.1756
 17.3017  24.109
 17.3823  24.1466
 17.4628  24.0204
 17.5433  24.0577
 17.6238  23.9466
 17.7042  23.7713
 17.7847  23.9263
 17.8653  23.9244
 17.9458  23.8467
 18.0263  24.3097
 18.1068  24.4834
 18.1872  23.9025
 18.2678  23.6958
 18.3483  23.8904
 18.4288  23.6969
 18.5093  23.6551
 18.5897  23.726
 18.6703  23.4676
 18.7508  23.4765
 18.8313  23.5605
 18.9118  23.6158
 18.9922  23.522
 19.0727  23.6368
 19.1533  23.6534
 19.2338  23.5071
 19.3143  23.5634
 19.3948  23.7601
 19.4752  23.6979
 19.5558  23.9011
 19.6363  24.1466
 19.7168  26.6576
 19.7973  24.6485
 19.8777  25.6406
 19.9582  24.0199
 20.0388  23.9197
 20.1193  23.7637
 20.1998  23.8012
 20.2803  23.8639
 20.3607  23.804
 20.4413  23.8072
 20.5218  23.7132
 20.6023  23.7807
 20.6828  24.1689
 20.7632  25.2029
 20.8438  24.2004
 20.9243  23.9578
 21.0048  24.0318
 21.0853  23.9427
 21.1658  23.919
 21.2462  23.87
 21.3268  23.9945
 21.4073  23.9992
 21.4878  24.0419
 21.5683  24.0419
 21.6487  24.1764
 21.7293  24.317
 21.8098  24.2091
 21.8903  24.1826
 21.9708  24.2995
 22.0512  24.2497
 22.1318  24.419
 22.2123  24.4733
 22.2928  24.409
 22.3733  24.6659
 22.4538  24.6561
 22.5343  24.8768
 22.6148  24.9812
 22.6953  25.1935
 22.7758  25.4566
 22.8563  25.7597
 22.9367  26.1776
 22.9943  27.0763