File: test-data-xrd/xrd-map-34-ID-E/Data_0007.chi
F:\20151113_APS_34IDE\\Brian\Particle1\OCV\Data_0007.tif
2-Theta Angle (Degrees)
Intensity
       2000
 0.07475  0.0000000E+00
 0.15525  0.0000000E+00
 0.23575  0.0000000E+00
 0.31625  0.0000000E+00
 0.39675  0.0000000E+00
 0.47725  0.0000000E+00
 0.55775  0.0000000E+00
 0.63825  0.0000000E+00
 0.71875  0.0000000E+00
 0.79925  0.0000000E+00
 0.87975  0.0000000E+00
 0.96025  0.0000000E+00
 1.04075  0.0000000E+00
 1.12125  0.0000000E+00
 1.20175  0.0000000E+00
 1.28225  0.0000000E+00
 1.36275  0.0000000E+00
 1.44325  0.0000000E+00
 1.52375  0.0000000E+00
 1.60425  0.0000000E+00
 1.68475  0.0000000E+00
 1.76525  0.0000000E+00
 1.84575  0.0000000E+00
 1.92625  0.0000000E+00
 2.00675  0.0000000E+00
 2.08725  0.0000000E+00
 2.16775  0.0000000E+00
 2.24825  0.0000000E+00
 2.32875  0.0000000E+00
 2.40925  0.0000000E+00
 2.48975  0.0000000E+00
 2.57025  0.0000000E+00
 2.65075  0.0000000E+00
 2.73125  0.0000000E+00
 2.81175  0.0000000E+00
 2.89225  35.5171
 2.97275  35.9493
 3.05325  35.3263
 3.13375  35.2096
 3.21425  35.2178
 3.29475  34.3397
 3.37525  34.8236
 3.45575  34.5901
 3.53625  33.9598
 3.61675  32.9626
 3.69725  32.8714
 3.77775  32.8459
 3.85825  32.3787
 3.93875  32.1975
 4.01925  33.1765
 4.09975  32.1919
 4.18025  31.7272
 4.26075  32.1675
 4.34125  31.7524
 4.42175  32.7958
 4.50225  32.4565
 4.58275  32.7105
 4.66325  32.3738
 4.74375  32.2326
 4.82425  32.5571
 4.90475  32.7377
 4.98525  32.9788
 5.06575  33.2692
 5.14625  33.8075
 5.22675  33.7343
 5.30725  34.2209
 5.38775  34.236
 5.46825  34.6398
 5.54875  34.9177
 5.62925  35.0647
 5.70975  35.3361
 5.79025  35.7407
 5.87075  35.7795
 5.95125  37.718
 6.03175  37.1817
 6.11225  36.4962
 6.19275  36.7654
 6.27325  37.664
 6.35375  38.1065
 6.43425  38.7095
 6.51475  39.0147
 6.59525  39.5828
 6.67575  39.9041
 6.75625  40.5499
 6.83675  41.4723
 6.91725  41.9088
 6.99775  42.7379
 7.07825  42.7407
 7.15875  43.4746
 7.23925  43.855
 7.31975  43.863
 7.40025  44.1392
 7.48075  44.6227
 7.56125  44.6275
 7.64175  44.5803
 7.72225  44.4101
 7.80275  44.6526
 7.88325  44.0805
 7.96375  44.0311
 8.04425  43.8629
 8.12475  42.8903
 8.20525  42.2903
 8.28575  41.2267
 8.36625  40.3333
 8.44675  39.1013
 8.52725  37.9206
 8.60775  36.6409
 8.68825  35.4533
 8.76875  34.1494
 8.84925  32.8
 8.92975  32.1017
 9.01025  31.1718
 9.09075  30.2573
 9.17125  29.16
 9.25175  28.3137
 9.33225  27.6107
 9.41275  27.3026
 9.49325  26.7465
 9.57375  26.3902
 9.65425  25.8845
 9.73475  25.5875
 9.81525  25.0736
 9.89575  25.0084
 9.97625  24.4411
 10.0567  24.2728
 10.1373  24.0299
 10.2178  23.9468
 10.2982  23.7081
 10.3788  23.5698
 10.4593  23.3667
 10.5397  23.2744
 10.6203  23.3124
 10.7007  23.0908
 10.7813  22.9916
 10.8618  22.8404
 10.9422  22.5034
 11.0228  22.6146
 11.1033  22.6803
 11.1837  22.5915
 11.2643  22.3964
 11.3447  22.6896
 11.4253  23.1203
 11.5058  22.8355
 11.5862  24.6303
 11.6668  22.8564
 11.7473  22.5208
 11.8277  22.6282
 11.9083  22.3852
 11.9887  22.8866
 12.0693  24.0013
 12.1498  23.5498
 12.2302  22.6622
 12.3108  22.6387
 12.3913  22.7439
 12.4718  22.7931
 12.5523  22.7695
 12.6328  22.9447
 12.7133  23.0806
 12.7938  23.1746
 12.8742  23.5428
 12.9548  23.8027
 13.0353  24.2828
 13.1158  24.9483
 13.1963  25.7317
 13.2768  26.5874
 13.3573  27.6245
 13.4378  28.6187
 13.5183  29.4291
 13.5988  29.6702
 13.6793  29.8598
 13.7598  29.5384
 13.8403  28.932
 13.9208  31.2033
 14.0013  29.5023
 14.0818  27.594
 14.1623  26.9705
 14.2428  26.4301
 14.3233  26.1924
 14.4038  26.0186
 14.4843  25.675
 14.5648  25.5548
 14.6453  25.3728
 14.7258  25.8643
 14.8063  25.1072
 14.8868  24.9153
 14.9673  24.6103
 15.0478  24.858
 15.1283  24.9491
 15.2088  25.3211
 15.2892  24.6519
 15.3698  24.54
 15.4503  24.4266
 15.5308  24.6383
 15.6113  24.516
 15.6918  24.5158
 15.7723  24.6388
 15.8528  24.5813
 15.9332  24.5918
 16.0138  24.7136
 16.0943  24.7563
 16.1748  24.8294
 16.2553  25.5032
 16.3358  25.0477
 16.4163  24.7148
 16.4967  24.7402
 16.5773  24.6585
 16.6578  24.6299
 16.7383  24.6598
 16.8188  24.5751
 16.8992  24.3706
 16.9798  24.3371
 17.0603  24.1814
 17.1408  24.2209
 17.2213  24.3145
 17.3017  24.1671
 17.3823  23.9676
 17.4628  23.9153
 17.5433  23.8241
 17.6238  23.8582
 17.7042  23.7721
 17.7847  23.6998
 17.8653  23.7063
 17.9458  23.722
 18.0263  23.8145
 18.1068  24.1233
 18.1872  23.6526
 18.2678  23.6032
 18.3483  23.6588
 18.4288  23.6589
 18.5093  23.6824
 18.5897  23.6456
 18.6703  23.5102
 18.7508  23.4731
 18.8313  23.4604
 18.9118  23.5905
 18.9922  23.6918
 19.0727  23.6658
 19.1533  23.61
 19.2338  23.5101
 19.3143  23.6974
 19.3948  23.6543
 19.4752  23.5718
 19.5558  23.6995
 19.6363  23.7076
 19.7168  24.5074
 19.7973  24.0456
 19.8777  24.4806
 19.9582  23.7629
 20.0388  23.6325
 20.1193  23.8319
 20.1998  23.8088
 20.2803  23.942
 20.3607  23.6466
 20.4413  23.8103
 20.5218  23.739
 20.6023  23.8032
 20.6828  23.8617
 20.7632  24.485
 20.8438  23.8969
 20.9243  23.9476
 21.0048  23.9758
 21.0853  23.8842
 21.1658  23.834
 21.2462  23.9024
 21.3268  24.0223
 21.4073  23.9329
 21.4878  24.0078
 21.5683  24.0086
 21.6487  24.0588
 21.7293  24.1365
 21.8098  24.2062
 21.8903  24.228
 21.9708  24.1755
 22.0512  24.3181
 22.1318  24.3138
 22.2123  24.3217
 22.2928  24.4351
 22.3733  24.5092
 22.4538  24.7206
 22.5343  24.8005
 22.6148  24.8999
 22.6953  25.1151
 22.7758  25.2575
 22.8563  25.4796
 22.9367  25.816
 22.9943  26.3296