File: test-data-xrd/xrd-map-34-ID-E/Data_0017.chi
F:\20151113_APS_34IDE\\Brian\Particle1\OCV\Data_0017.tif
2-Theta Angle (Degrees)
Intensity
       2000
 0.07475  0.0000000E+00
 0.15525  0.0000000E+00
 0.23575  0.0000000E+00
 0.31625  0.0000000E+00
 0.39675  0.0000000E+00
 0.47725  0.0000000E+00
 0.55775  0.0000000E+00
 0.63825  0.0000000E+00
 0.71875  0.0000000E+00
 0.79925  0.0000000E+00
 0.87975  0.0000000E+00
 0.96025  0.0000000E+00
 1.04075  0.0000000E+00
 1.12125  0.0000000E+00
 1.20175  0.0000000E+00
 1.28225  0.0000000E+00
 1.36275  0.0000000E+00
 1.44325  0.0000000E+00
 1.52375  0.0000000E+00
 1.60425  0.0000000E+00
 1.68475  0.0000000E+00
 1.76525  0.0000000E+00
 1.84575  0.0000000E+00
 1.92625  0.0000000E+00
 2.00675  0.0000000E+00
 2.08725  0.0000000E+00
 2.16775  0.0000000E+00
 2.24825  0.0000000E+00
 2.32875  0.0000000E+00
 2.40925  0.0000000E+00
 2.48975  0.0000000E+00
 2.57025  0.0000000E+00
 2.65075  0.0000000E+00
 2.73125  0.0000000E+00
 2.81175  0.0000000E+00
 2.89225  34.5544
 2.97275  34.3622
 3.05325  36.0319
 3.13375  35.57
 3.21425  35.5251
 3.29475  33.8678
 3.37525  34.6984
 3.45575  34.483
 3.53625  33.6331
 3.61675  33.2381
 3.69725  33.5304
 3.77775  33.054
 3.85825  32.896
 3.93875  33.0566
 4.01925  33.2402
 4.09975  32.6319
 4.18025  32.5649
 4.26075  32.1003
 4.34125  32.4166
 4.42175  32.5756
 4.50225  32.5913
 4.58275  33.1255
 4.66325  32.9286
 4.74375  32.9562
 4.82425  32.7867
 4.90475  32.8935
 4.98525  33.2134
 5.06575  33.1606
 5.14625  33.5812
 5.22675  34.2233
 5.30725  34.4474
 5.38775  34.5258
 5.46825  34.6834
 5.54875  35.1045
 5.62925  35.4341
 5.70975  35.747
 5.79025  35.6272
 5.87075  36.6384
 5.95125  42.7502
 6.03175  44.523
 6.11225  37.281
 6.19275  36.8198
 6.27325  37.3824
 6.35375  37.9441
 6.43425  38.5983
 6.51475  38.935
 6.59525  39.3294
 6.67575  40.2558
 6.75625  41.0201
 6.83675  41.6376
 6.91725  42.1046
 6.99775  42.0366
 7.07825  42.5374
 7.15875  43.0143
 7.23925  43.4707
 7.31975  43.6904
 7.40025  44.3635
 7.48075  44.3735
 7.56125  44.4252
 7.64175  44.4961
 7.72225  44.5323
 7.80275  44.7222
 7.88325  43.7925
 7.96375  43.8249
 8.04425  43.5909
 8.12475  43.0399
 8.20525  41.9812
 8.28575  40.937
 8.36625  40.2124
 8.44675  38.9668
 8.52725  37.7128
 8.60775  36.7775
 8.68825  35.3564
 8.76875  34.1616
 8.84925  33.1817
 8.92975  31.9399
 9.01025  30.7907
 9.09075  29.9687
 9.17125  29.1303
 9.25175  28.3545
 9.33225  27.472
 9.41275  27.3358
 9.49325  26.7834
 9.57375  26.1644
 9.65425  25.5503
 9.73475  25.3755
 9.81525  25.1378
 9.89575  24.8838
 9.97625  24.6157
 10.0567  24.4629
 10.1373  24.1177
 10.2178  23.955
 10.2982  23.9416
 10.3788  23.6551
 10.4593  23.3139
 10.5397  23.345
 10.6203  23.2384
 10.7007  23.2167
 10.7813  23.2103
 10.8618  22.8635
 10.9422  22.8657
 11.0228  22.7634
 11.1033  22.7759
 11.1837  22.8622
 11.2643  22.691
 11.3447  22.9186
 11.4253  23.3337
 11.5058  23.8366
 11.5862  35.5175
 11.6668  23.6682
 11.7473  22.7939
 11.8277  22.9537
 11.9083  22.7609
 11.9887  23.4728
 12.0693  24.3282
 12.1498  25.7691
 12.2302  22.8262
 12.3108  22.8044
 12.3913  22.7787
 12.4718  22.7922
 12.5523  22.7585
 12.6328  23.0186
 12.7133  23.2069
 12.7938  23.325
 12.8742  23.6099
 12.9548  23.9244
 13.0353  24.2102
 13.1158  25.0467
 13.1963  25.683
 13.2768  26.7794
 13.3573  27.9012
 13.4378  28.5038
 13.5183  29.4723
 13.5988  30.1382
 13.6793  30.04
 13.7598  29.7751
 13.8403  30.0307
 13.9208  42.7713
 14.0013  35.3454
 14.0818  28.1844
 14.1623  27.1787
 14.2428  26.7204
 14.3233  26.316
 14.4038  26.1088
 14.4843  25.7859
 14.5648  25.8123
 14.6453  25.5931
 14.7258  25.3397
 14.8063  25.137
 14.8868  25.0954
 14.9673  24.8989
 15.0478  25.1029
 15.1283  25.0783
 15.2088  26.8571
 15.2892  24.9537
 15.3698  24.6805
 15.4503  24.5934
 15.5308  24.5279
 15.6113  24.5052
 15.6918  24.5055
 15.7723  24.5977
 15.8528  24.5667
 15.9332  24.7599
 16.0138  24.8129
 16.0943  24.8252
 16.1748  24.988
 16.2553  25.8994
 16.3358  25.0183
 16.4163  24.8403
 16.4967  24.654
 16.5773  24.5992
 16.6578  24.477
 16.7383  24.5222
 16.8188  24.5396
 16.8992  24.4972
 16.9798  24.4582
 17.0603  24.3277
 17.1408  24.2872
 17.2213  24.0902
 17.3017  24.2181
 17.3823  24.2719
 17.4628  24.0873
 17.5433  24.0725
 17.6238  23.9505
 17.7042  24.0233
 17.7847  24.0136
 17.8653  23.8977
 17.9458  24.0633
 18.0263  25.8403
 18.1068  26.9234
 18.1872  24.255
 18.2678  23.9055
 18.3483  23.7538
 18.4288  23.8345
 18.5093  23.7176
 18.5897  23.7252
 18.6703  23.5195
 18.7508  23.6926
 18.8313  23.6549
 18.9118  23.639
 18.9922  23.5342
 19.0727  23.588
 19.1533  23.5837
 19.2338  23.6178
 19.3143  23.7896
 19.3948  23.7417
 19.4752  23.9734
 19.5558  24.5225
 19.6363  24.606
 19.7168  29.6837
 19.7973  25.7305
 19.8777  26.6898
 19.9582  24.3326
 20.0388  23.8845
 20.1193  23.777
 20.1998  23.8729
 20.2803  23.8599
 20.3607  23.75
 20.4413  23.9734
 20.5218  23.7522
 20.6023  24.1029
 20.6828  24.2609
 20.7632  26.1183
 20.8438  24.2865
 20.9243  23.9938
 21.0048  24.0046
 21.0853  23.847
 21.1658  23.9313
 21.2462  24.0048
 21.3268  24.0468
 21.4073  24.0556
 21.4878  24.1266
 21.5683  24.1586
 21.6487  24.2477
 21.7293  24.1882
 21.8098  24.2493
 21.8903  24.1707
 21.9708  24.2921
 22.0512  24.3268
 22.1318  24.4106
 22.2123  24.384
 22.2928  24.497
 22.3733  24.6355
 22.4538  24.8475
 22.5343  24.85
 22.6148  24.8937
 22.6953  25.1592
 22.7758  25.3119
 22.8563  25.541
 22.9367  25.9364
 22.9943  26.3513