File: test-data-xrd/xrd-map-34-ID-E/Data_0083.chi
F:\20151113_APS_34IDE\\Brian\Particle1\OCV\Data_0083.tif
2-Theta Angle (Degrees)
Intensity
       2000
 0.07475  0.0000000E+00
 0.15525  0.0000000E+00
 0.23575  0.0000000E+00
 0.31625  0.0000000E+00
 0.39675  0.0000000E+00
 0.47725  0.0000000E+00
 0.55775  0.0000000E+00
 0.63825  0.0000000E+00
 0.71875  0.0000000E+00
 0.79925  0.0000000E+00
 0.87975  0.0000000E+00
 0.96025  0.0000000E+00
 1.04075  0.0000000E+00
 1.12125  0.0000000E+00
 1.20175  0.0000000E+00
 1.28225  0.0000000E+00
 1.36275  0.0000000E+00
 1.44325  0.0000000E+00
 1.52375  0.0000000E+00
 1.60425  0.0000000E+00
 1.68475  0.0000000E+00
 1.76525  0.0000000E+00
 1.84575  0.0000000E+00
 1.92625  0.0000000E+00
 2.00675  0.0000000E+00
 2.08725  0.0000000E+00
 2.16775  0.0000000E+00
 2.24825  0.0000000E+00
 2.32875  0.0000000E+00
 2.40925  0.0000000E+00
 2.48975  0.0000000E+00
 2.57025  0.0000000E+00
 2.65075  0.0000000E+00
 2.73125  0.0000000E+00
 2.81175  0.0000000E+00
 2.89225  32.7742
 2.97275  36.4611
 3.05325  35.5759
 3.13375  35.8139
 3.21425  34.4728
 3.29475  34.3608
 3.37525  35.1087
 3.45575  33.8433
 3.53625  34.2977
 3.61675  33.1157
 3.69725  33.1615
 3.77775  32.4888
 3.85825  32.6357
 3.93875  32.3608
 4.01925  32.5485
 4.09975  32.0869
 4.18025  31.9886
 4.26075  32.1348
 4.34125  32.3704
 4.42175  32.6931
 4.50225  32.6737
 4.58275  32.3517
 4.66325  33.3384
 4.74375  32.6351
 4.82425  32.7999
 4.90475  32.6754
 4.98525  32.9829
 5.06575  33.5479
 5.14625  33.6889
 5.22675  33.9518
 5.30725  34.0884
 5.38775  34.5663
 5.46825  34.624
 5.54875  34.8477
 5.62925  35.2215
 5.70975  35.5379
 5.79025  35.7811
 5.87075  36.3866
 5.95125  51.1736
 6.03175  48.8241
 6.11225  37.3621
 6.19275  37.1551
 6.27325  37.1799
 6.35375  38.0146
 6.43425  38.3742
 6.51475  39.2089
 6.59525  39.3317
 6.67575  39.8363
 6.75625  40.5737
 6.83675  41.4938
 6.91725  42.0664
 6.99775  42.3186
 7.07825  42.485
 7.15875  43.0351
 7.23925  43.4295
 7.31975  43.6281
 7.40025  43.8224
 7.48075  44.2803
 7.56125  44.3714
 7.64175  44.448
 7.72225  44.2304
 7.80275  43.9422
 7.88325  44.029
 7.96375  43.532
 8.04425  43.2524
 8.12475  42.4383
 8.20525  41.7184
 8.28575  40.9512
 8.36625  39.8333
 8.44675  38.7116
 8.52725  37.7224
 8.60775  36.2505
 8.68825  35.0952
 8.76875  34.0237
 8.84925  32.8979
 8.92975  31.6353
 9.01025  30.5536
 9.09075  29.7228
 9.17125  29.0445
 9.25175  28.423
 9.33225  27.5906
 9.41275  26.9859
 9.49325  26.6485
 9.57375  26.0346
 9.65425  25.5888
 9.73475  25.399
 9.81525  25.0405
 9.89575  24.728
 9.97625  24.4967
 10.0567  24.3878
 10.1373  23.9915
 10.2178  23.7709
 10.2982  23.6554
 10.3788  23.5969
 10.4593  23.3282
 10.5397  23.2786
 10.6203  23.6591
 10.7007  23.492
 10.7813  23.2415
 10.8618  22.968
 10.9422  22.8669
 11.0228  22.8994
 11.1033  22.7486
 11.1837  22.6098
 11.2643  22.5463
 11.3447  22.7097
 11.4253  23.0131
 11.5058  23.5461
 11.5862  32.9806
 11.6668  24.1937
 11.7473  22.9239
 11.8277  22.8408
 11.9083  23.1204
 11.9887  26.6494
 12.0693  27.7587
 12.1498  24.604
 12.2302  22.8641
 12.3108  22.7917
 12.3913  22.7125
 12.4718  22.7093
 12.5523  23.0056
 12.6328  23.1596
 12.7133  23.137
 12.7938  23.3742
 12.8742  23.6335
 12.9548  23.9075
 13.0353  24.1533
 13.1158  24.9504
 13.1963  25.8907
 13.2768  26.7807
 13.3573  27.6928
 13.4378  28.6613
 13.5183  29.4871
 13.5988  29.9409
 13.6793  29.9807
 13.7598  29.7972
 13.8403  30.1994
 13.9208  42.4047
 14.0013  42.2563
 14.0818  28.4594
 14.1623  27.6565
 14.2428  26.7727
 14.3233  26.4456
 14.4038  26.0379
 14.4843  25.8799
 14.5648  25.799
 14.6453  25.532
 14.7258  25.3874
 14.8063  25.2398
 14.8868  25.092
 14.9673  25.1281
 15.0478  25.0218
 15.1283  25.6977
 15.2088  29.0505
 15.2892  25.1503
 15.3698  24.7276
 15.4503  24.6312
 15.5308  24.7445
 15.6113  24.6576
 15.6918  24.6468
 15.7723  24.806
 15.8528  24.7208
 15.9332  24.7255
 16.0138  24.7526
 16.0943  24.9539
 16.1748  25.0558
 16.2553  25.9511
 16.3358  25.0584
 16.4163  24.9566
 16.4967  24.799
 16.5773  24.7611
 16.6578  24.649
 16.7383  24.6311
 16.8188  24.5018
 16.8992  24.6143
 16.9798  24.4918
 17.0603  24.2567
 17.1408  24.3248
 17.2213  24.3405
 17.3017  24.36
 17.3823  24.1509
 17.4628  24.0753
 17.5433  24.0979
 17.6238  24.1118
 17.7042  23.9629
 17.7847  23.9921
 17.8653  23.9805
 17.9458  24.3177
 18.0263  25.555
 18.1068  35.8432
 18.1872  27.1921
 18.2678  24.1973
 18.3483  23.9429
 18.4288  23.9065
 18.5093  23.7257
 18.5897  23.7899
 18.6703  23.6559
 18.7508  23.6979
 18.8313  23.5962
 18.9118  23.9144
 18.9922  23.6128
 19.0727  23.8052
 19.1533  23.7869
 19.2338  23.6314
 19.3143  23.9126
 19.3948  23.9641
 19.4752  23.8996
 19.5558  24.0579
 19.6363  24.8616
 19.7168  29.9107
 19.7973  29.2855
 19.8777  34.9643
 19.9582  24.877
 20.0388  24.2423
 20.1193  24.0898
 20.1998  24.0531
 20.2803  23.8603
 20.3607  23.9635
 20.4413  23.8982
 20.5218  23.8386
 20.6023  24.2344
 20.6828  24.5598
 20.7632  28.3
 20.8438  25.1473
 20.9243  24.4275
 21.0048  24.1732
 21.0853  24.0166
 21.1658  24.136
 21.2462  24.0839
 21.3268  24.14
 21.4073  24.1386
 21.4878  24.0868
 21.5683  24.1209
 21.6487  24.2432
 21.7293  24.1846
 21.8098  24.2971
 21.8903  24.3337
 21.9708  24.4775
 22.0512  24.387
 22.1318  24.7117
 22.2123  24.5962
 22.2928  24.4536
 22.3733  24.6029
 22.4538  24.7779
 22.5343  24.9114
 22.6148  25.0555
 22.6953  25.3034
 22.7758  25.3898
 22.8563  25.746
 22.9367  26.1933
 22.9943  26.5831