File: test-data-xrd/xrd-map-34-ID-E/Data_0039.chi
F:\20151113_APS_34IDE\\Brian\Particle1\OCV\Data_0039.tif
2-Theta Angle (Degrees)
Intensity
       2000
 0.07475  0.0000000E+00
 0.15525  0.0000000E+00
 0.23575  0.0000000E+00
 0.31625  0.0000000E+00
 0.39675  0.0000000E+00
 0.47725  0.0000000E+00
 0.55775  0.0000000E+00
 0.63825  0.0000000E+00
 0.71875  0.0000000E+00
 0.79925  0.0000000E+00
 0.87975  0.0000000E+00
 0.96025  0.0000000E+00
 1.04075  0.0000000E+00
 1.12125  0.0000000E+00
 1.20175  0.0000000E+00
 1.28225  0.0000000E+00
 1.36275  0.0000000E+00
 1.44325  0.0000000E+00
 1.52375  0.0000000E+00
 1.60425  0.0000000E+00
 1.68475  0.0000000E+00
 1.76525  0.0000000E+00
 1.84575  0.0000000E+00
 1.92625  0.0000000E+00
 2.00675  0.0000000E+00
 2.08725  0.0000000E+00
 2.16775  0.0000000E+00
 2.24825  0.0000000E+00
 2.32875  0.0000000E+00
 2.40925  0.0000000E+00
 2.48975  0.0000000E+00
 2.57025  0.0000000E+00
 2.65075  0.0000000E+00
 2.73125  0.0000000E+00
 2.81175  0.0000000E+00
 2.89225  35.4067
 2.97275  36.5892
 3.05325  35.2167
 3.13375  36.1116
 3.21425  35.288
 3.29475  33.2923
 3.37525  34.4816
 3.45575  33.766
 3.53625  33.4878
 3.61675  32.8783
 3.69725  32.842
 3.77775  32.6252
 3.85825  32.0359
 3.93875  32.0764
 4.01925  32.1059
 4.09975  32.5429
 4.18025  31.9144
 4.26075  32.4757
 4.34125  32.2874
 4.42175  32.0223
 4.50225  32.072
 4.58275  32.2123
 4.66325  32.5353
 4.74375  32.1971
 4.82425  32.3253
 4.90475  32.6252
 4.98525  32.7548
 5.06575  32.7018
 5.14625  33.1997
 5.22675  33.5328
 5.30725  34.0622
 5.38775  34.1941
 5.46825  34.324
 5.54875  34.4045
 5.62925  34.9527
 5.70975  35.3098
 5.79025  35.8883
 5.87075  36.5425
 5.95125  50.3072
 6.03175  43.3327
 6.11225  37.2194
 6.19275  37.0033
 6.27325  37.2757
 6.35375  37.5703
 6.43425  38.1814
 6.51475  38.7974
 6.59525  38.9548
 6.67575  39.7332
 6.75625  40.5638
 6.83675  41.0737
 6.91725  41.8657
 6.99775  41.5177
 7.07825  42.3686
 7.15875  42.7617
 7.23925  43.0712
 7.31975  43.5725
 7.40025  43.6245
 7.48075  44.0334
 7.56125  44.0485
 7.64175  43.8938
 7.72225  43.8627
 7.80275  44.0272
 7.88325  43.2732
 7.96375  43.191
 8.04425  43.0287
 8.12475  42.3737
 8.20525  41.5609
 8.28575  40.5196
 8.36625  39.7368
 8.44675  38.8181
 8.52725  37.0884
 8.60775  36.2773
 8.68825  34.8485
 8.76875  33.6988
 8.84925  32.7522
 8.92975  31.6368
 9.01025  30.3501
 9.09075  29.8764
 9.17125  28.7755
 9.25175  28.1127
 9.33225  27.4789
 9.41275  27.0798
 9.49325  26.4891
 9.57375  25.9224
 9.65425  25.5507
 9.73475  25.2801
 9.81525  24.7975
 9.89575  24.7863
 9.97625  24.2963
 10.0567  24.0435
 10.1373  23.9792
 10.2178  23.8527
 10.2982  23.682
 10.3788  23.3965
 10.4593  23.2325
 10.5397  23.1519
 10.6203  22.9501
 10.7007  22.9906
 10.7813  22.8915
 10.8618  22.7949
 10.9422  22.6694
 11.0228  22.7051
 11.1033  22.6615
 11.1837  22.663
 11.2643  22.6091
 11.3447  22.3671
 11.4253  23.0508
 11.5058  23.1161
 11.5862  29.8653
 11.6668  23.8433
 11.7473  22.6455
 11.8277  22.7155
 11.9083  22.6654
 11.9887  23.9605
 12.0693  25.4543
 12.1498  25.4215
 12.2302  22.7243
 12.3108  22.7421
 12.3913  22.806
 12.4718  22.6681
 12.5523  22.7807
 12.6328  22.97
 12.7133  23.0594
 12.7938  23.2317
 12.8742  23.3231
 12.9548  23.768
 13.0353  24.2538
 13.1158  24.8702
 13.1963  25.6708
 13.2768  26.6269
 13.3573  27.5745
 13.4378  28.5188
 13.5183  29.3269
 13.5988  29.5631
 13.6793  29.6517
 13.7598  29.6061
 13.8403  30.1083
 13.9208  44.9101
 14.0013  38.7014
 14.0818  28.6365
 14.1623  27.3267
 14.2428  26.5719
 14.3233  26.3097
 14.4038  26.057
 14.4843  25.676
 14.5648  25.6219
 14.6453  25.3182
 14.7258  25.2848
 14.8063  25.0029
 14.8868  24.9192
 14.9673  24.8611
 15.0478  24.8626
 15.1283  25.1318
 15.2088  27.25
 15.2892  25.0604
 15.3698  24.7085
 15.4503  24.5818
 15.5308  24.6965
 15.6113  24.5234
 15.6918  24.6094
 15.7723  24.6636
 15.8528  24.5844
 15.9332  24.7996
 16.0138  24.7622
 16.0943  24.7155
 16.1748  24.9169
 16.2553  25.8138
 16.3358  24.9466
 16.4163  24.6877
 16.4967  24.6535
 16.5773  24.612
 16.6578  24.6606
 16.7383  24.5867
 16.8188  24.5465
 16.8992  24.5177
 16.9798  24.3589
 17.0603  24.3653
 17.1408  24.3358
 17.2213  24.2369
 17.3017  24.1168
 17.3823  24.0041
 17.4628  24.1439
 17.5433  24.1255
 17.6238  24.0562
 17.7042  23.9575
 17.7847  23.9374
 17.8653  23.933
 17.9458  23.9624
 18.0263  24.6763
 18.1068  25.4693
 18.1872  24.0901
 18.2678  23.858
 18.3483  23.7988
 18.4288  23.7299
 18.5093  23.6443
 18.5897  23.7231
 18.6703  23.6243
 18.7508  23.6127
 18.8313  23.5634
 18.9118  23.5263
 18.9922  23.6422
 19.0727  23.6445
 19.1533  23.7044
 19.2338  23.6947
 19.3143  23.7561
 19.3948  23.8692
 19.4752  23.8153
 19.5558  24.044
 19.6363  24.7643
 19.7168  30.2985
 19.7973  25.9012
 19.8777  28.6236
 19.9582  24.3658
 20.0388  24.0114
 20.1193  24.0274
 20.1998  23.8935
 20.2803  23.9254
 20.3607  23.9799
 20.4413  23.9187
 20.5218  23.8632
 20.6023  105.666
 20.6828  24.5211
 20.7632  28.6445
 20.8438  24.8141
 20.9243  24.2184
 21.0048  24.1128
 21.0853  23.9286
 21.1658  23.9582
 21.2462  24.0579
 21.3268  24.0767
 21.4073  24.0854
 21.4878  24.0494
 21.5683  24.0701
 21.6487  24.2046
 21.7293  24.1491
 21.8098  24.3997
 21.8903  24.2926
 21.9708  24.3314
 22.0512  24.2856
 22.1318  24.4383
 22.2123  24.342
 22.2928  24.5009
 22.3733  24.5677
 22.4538  24.7862
 22.5343  24.9501
 22.6148  25.0821
 22.6953  25.1566
 22.7758  25.4734
 22.8563  25.6435
 22.9367  26.1665
 22.9943  26.784