File: test-data-xrd/xrd-map-34-ID-E/Data_0069.chi
F:\20151113_APS_34IDE\\Brian\Particle1\OCV\Data_0069.tif
2-Theta Angle (Degrees)
Intensity
       2000
 0.07475  0.0000000E+00
 0.15525  0.0000000E+00
 0.23575  0.0000000E+00
 0.31625  0.0000000E+00
 0.39675  0.0000000E+00
 0.47725  0.0000000E+00
 0.55775  0.0000000E+00
 0.63825  0.0000000E+00
 0.71875  0.0000000E+00
 0.79925  0.0000000E+00
 0.87975  0.0000000E+00
 0.96025  0.0000000E+00
 1.04075  0.0000000E+00
 1.12125  0.0000000E+00
 1.20175  0.0000000E+00
 1.28225  0.0000000E+00
 1.36275  0.0000000E+00
 1.44325  0.0000000E+00
 1.52375  0.0000000E+00
 1.60425  0.0000000E+00
 1.68475  0.0000000E+00
 1.76525  0.0000000E+00
 1.84575  0.0000000E+00
 1.92625  0.0000000E+00
 2.00675  0.0000000E+00
 2.08725  0.0000000E+00
 2.16775  0.0000000E+00
 2.24825  0.0000000E+00
 2.32875  0.0000000E+00
 2.40925  0.0000000E+00
 2.48975  0.0000000E+00
 2.57025  0.0000000E+00
 2.65075  0.0000000E+00
 2.73125  0.0000000E+00
 2.81175  0.0000000E+00
 2.89225  33.9464
 2.97275  34.7055
 3.05325  35.5698
 3.13375  35.6794
 3.21425  35.6352
 3.29475  34.0014
 3.37525  33.6688
 3.45575  33.8873
 3.53625  33.0053
 3.61675  33.1339
 3.69725  32.73
 3.77775  32.3477
 3.85825  32.8589
 3.93875  32.1697
 4.01925  32.789
 4.09975  32.5694
 4.18025  31.6219
 4.26075  31.5254
 4.34125  32.4218
 4.42175  32.2542
 4.50225  32.6229
 4.58275  32.7569
 4.66325  32.4377
 4.74375  32.1201
 4.82425  32.3191
 4.90475  32.4934
 4.98525  32.9911
 5.06575  33.328
 5.14625  33.4093
 5.22675  33.5149
 5.30725  34.0539
 5.38775  34.4351
 5.46825  34.5453
 5.54875  34.6044
 5.62925  34.8399
 5.70975  35.2753
 5.79025  35.5861
 5.87075  36.726
 5.95125  44.8634
 6.03175  43.1329
 6.11225  36.695
 6.19275  36.9329
 6.27325  37.3419
 6.35375  37.5064
 6.43425  38.1061
 6.51475  38.8757
 6.59525  39.2909
 6.67575  39.6599
 6.75625  40.3378
 6.83675  40.9077
 6.91725  41.4903
 6.99775  41.9249
 7.07825  42.5668
 7.15875  42.7422
 7.23925  43.0063
 7.31975  43.2779
 7.40025  43.5227
 7.48075  43.7177
 7.56125  43.7964
 7.64175  44.0253
 7.72225  44.0268
 7.80275  43.7342
 7.88325  43.6464
 7.96375  43.1165
 8.04425  42.8492
 8.12475  42.4908
 8.20525  41.5274
 8.28575  40.5895
 8.36625  39.6273
 8.44675  38.3386
 8.52725  37.1658
 8.60775  35.9676
 8.68825  34.962
 8.76875  33.8621
 8.84925  32.7748
 8.92975  31.478
 9.01025  30.3979
 9.09075  29.6194
 9.17125  29.011
 9.25175  28.0343
 9.33225  27.4131
 9.41275  26.9189
 9.49325  26.3414
 9.57375  25.857
 9.65425  25.4734
 9.73475  25.1771
 9.81525  24.9
 9.89575  24.5325
 9.97625  24.1802
 10.0567  24.1421
 10.1373  23.7318
 10.2178  23.6182
 10.2982  23.4431
 10.3788  23.1527
 10.4593  23.2202
 10.5397  22.8993
 10.6203  22.9185
 10.7007  22.7984
 10.7813  22.8982
 10.8618  22.6631
 10.9422  22.5372
 11.0228  22.5632
 11.1033  22.5103
 11.1837  22.5071
 11.2643  22.3968
 11.3447  22.5397
 11.4253  23.0228
 11.5058  23.41
 11.5862  34.3319
 11.6668  24.2219
 11.7473  22.7785
 11.8277  22.5825
 11.9083  22.816
 11.9887  25.4182
 12.0693  24.8366
 12.1498  25.3462
 12.2302  22.695
 12.3108  22.6687
 12.3913  22.6787
 12.4718  22.7199
 12.5523  22.7405
 12.6328  22.8175
 12.7133  22.8571
 12.7938  22.9631
 12.8742  23.1602
 12.9548  23.7099
 13.0353  24.2175
 13.1158  24.8069
 13.1963  25.5448
 13.2768  26.5952
 13.3573  27.6301
 13.4378  28.2918
 13.5183  29.1605
 13.5988  29.4206
 13.6793  29.559
 13.7598  29.3833
 13.8403  29.3456
 13.9208  33.8462
 14.0013  34.1216
 14.0818  27.9736
 14.1623  26.8983
 14.2428  26.6809
 14.3233  26.1909
 14.4038  25.9133
 14.4843  25.5361
 14.5648  25.5306
 14.6453  25.1123
 14.7258  25.0969
 14.8063  24.9335
 14.8868  24.9276
 14.9673  24.872
 15.0478  24.9498
 15.1283  26.3337
 15.2088  30.211
 15.2892  25.0471
 15.3698  24.7345
 15.4503  24.6419
 15.5308  24.5294
 15.6113  24.5601
 15.6918  24.5728
 15.7723  24.4292
 15.8528  24.5353
 15.9332  24.7568
 16.0138  24.9538
 16.0943  24.7688
 16.1748  24.8813
 16.2553  27.0795
 16.3358  25.0654
 16.4163  24.7668
 16.4967  24.7695
 16.5773  24.5314
 16.6578  24.5229
 16.7383  24.3935
 16.8188  24.5429
 16.8992  24.3268
 16.9798  24.2631
 17.0603  24.1736
 17.1408  24.298
 17.2213  24.2566
 17.3017  24.0701
 17.3823  24.0045
 17.4628  24.0094
 17.5433  24.0563
 17.6238  23.9279
 17.7042  23.9909
 17.7847  23.9427
 17.8653  23.9928
 17.9458  24.0302
 18.0263  27.0897
 18.1068  28.9954
 18.1872  24.3317
 18.2678  23.7664
 18.3483  23.7181
 18.4288  23.6979
 18.5093  23.646
 18.5897  23.5294
 18.6703  23.4192
 18.7508  23.4648
 18.8313  23.6051
 18.9118  23.5156
 18.9922  23.4874
 19.0727  23.6792
 19.1533  23.6388
 19.2338  23.6048
 19.3143  23.7061
 19.3948  23.8695
 19.4752  23.8901
 19.5558  23.9629
 19.6363  24.5436
 19.7168  27.7266
 19.7973  27.7975
 19.8777  40.5913
 19.9582  25.2485
 20.0388  24.2652
 20.1193  24.2117
 20.1998  23.9181
 20.2803  23.8889
 20.3607  23.7769
 20.4413  23.8238
 20.5218  23.7854
 20.6023  23.8499
 20.6828  24.3615
 20.7632  26.5887
 20.8438  25.0611
 20.9243  24.1905
 21.0048  23.9016
 21.0853  23.9553
 21.1658  23.8203
 21.2462  23.9652
 21.3268  23.8267
 21.4073  23.9628
 21.4878  24.0128
 21.5683  23.9519
 21.6487  24.0681
 21.7293  24.0883
 21.8098  24.1476
 21.8903  24.1246
 21.9708  24.185
 22.0512  24.4328
 22.1318  24.2468
 22.2123  24.3482
 22.2928  24.4805
 22.3733  24.5742
 22.4538  24.5924
 22.5343  24.7401
 22.6148  25.0164
 22.6953  25.243
 22.7758  25.2884
 22.8563  25.5665
 22.9367  26.2132
 22.9943  27.1706