File: test-data-xrd/xrd-map-34-ID-E/Data_0080.chi
F:\20151113_APS_34IDE\\Brian\Particle1\OCV\Data_0080.tif
2-Theta Angle (Degrees)
Intensity
       2000
 0.07475  0.0000000E+00
 0.15525  0.0000000E+00
 0.23575  0.0000000E+00
 0.31625  0.0000000E+00
 0.39675  0.0000000E+00
 0.47725  0.0000000E+00
 0.55775  0.0000000E+00
 0.63825  0.0000000E+00
 0.71875  0.0000000E+00
 0.79925  0.0000000E+00
 0.87975  0.0000000E+00
 0.96025  0.0000000E+00
 1.04075  0.0000000E+00
 1.12125  0.0000000E+00
 1.20175  0.0000000E+00
 1.28225  0.0000000E+00
 1.36275  0.0000000E+00
 1.44325  0.0000000E+00
 1.52375  0.0000000E+00
 1.60425  0.0000000E+00
 1.68475  0.0000000E+00
 1.76525  0.0000000E+00
 1.84575  0.0000000E+00
 1.92625  0.0000000E+00
 2.00675  0.0000000E+00
 2.08725  0.0000000E+00
 2.16775  0.0000000E+00
 2.24825  0.0000000E+00
 2.32875  0.0000000E+00
 2.40925  0.0000000E+00
 2.48975  0.0000000E+00
 2.57025  0.0000000E+00
 2.65075  0.0000000E+00
 2.73125  0.0000000E+00
 2.81175  0.0000000E+00
 2.89225  34.1959
 2.97275  35.2447
 3.05325  35.7312
 3.13375  35.6924
 3.21425  35.4307
 3.29475  35.9822
 3.37525  35.2756
 3.45575  33.4976
 3.53625  34.123
 3.61675  33.4481
 3.69725  33.5946
 3.77775  33.2524
 3.85825  32.8966
 3.93875  32.9534
 4.01925  32.8533
 4.09975  32.2824
 4.18025  32.1361
 4.26075  32.044
 4.34125  32.2067
 4.42175  32.5542
 4.50225  32.6089
 4.58275  32.1735
 4.66325  33.0452
 4.74375  32.6818
 4.82425  32.3017
 4.90475  32.9091
 4.98525  32.8028
 5.06575  33.1611
 5.14625  33.5028
 5.22675  33.9516
 5.30725  34.4598
 5.38775  34.4114
 5.46825  34.9608
 5.54875  34.8472
 5.62925  35.5045
 5.70975  35.6164
 5.79025  35.9018
 5.87075  36.3026
 5.95125  47.2632
 6.03175  47.0665
 6.11225  37.203
 6.19275  37.1491
 6.27325  37.6736
 6.35375  38.0486
 6.43425  38.2507
 6.51475  38.8303
 6.59525  39.4722
 6.67575  40.0396
 6.75625  40.7924
 6.83675  41.4114
 6.91725  41.9898
 6.99775  42.2533
 7.07825  42.7108
 7.15875  42.9798
 7.23925  43.3395
 7.31975  43.5446
 7.40025  43.6541
 7.48075  44.2408
 7.56125  44.5885
 7.64175  44.5705
 7.72225  44.4577
 7.80275  44.1924
 7.88325  43.8395
 7.96375  43.6386
 8.04425  43.3436
 8.12475  42.5922
 8.20525  41.8315
 8.28575  41.0507
 8.36625  39.6413
 8.44675  38.8138
 8.52725  37.4663
 8.60775  36.3166
 8.68825  34.9878
 8.76875  33.9814
 8.84925  32.7603
 8.92975  31.843
 9.01025  30.5537
 9.09075  29.7964
 9.17125  29.1293
 9.25175  28.2358
 9.33225  27.4592
 9.41275  26.9197
 9.49325  26.6573
 9.57375  26.1463
 9.65425  25.4474
 9.73475  25.1587
 9.81525  24.9295
 9.89575  24.4334
 9.97625  24.4247
 10.0567  24.1517
 10.1373  23.9315
 10.2178  23.94
 10.2982  23.5792
 10.3788  23.4941
 10.4593  23.1676
 10.5397  23.1907
 10.6203  23.1783
 10.7007  23.0193
 10.7813  22.8695
 10.8618  22.8224
 10.9422  22.7438
 11.0228  22.6171
 11.1033  22.634
 11.1837  22.6257
 11.2643  22.6697
 11.3447  22.7341
 11.4253  23.2269
 11.5058  24.0487
 11.5862  47.1493
 11.6668  24.94
 11.7473  22.9584
 11.8277  22.7631
 11.9083  22.8019
 11.9887  23.8853
 12.0693  25.1189
 12.1498  25.2034
 12.2302  22.7284
 12.3108  22.7451
 12.3913  22.7411
 12.4718  22.828
 12.5523  22.6544
 12.6328  22.9493
 12.7133  23.0706
 12.7938  23.2393
 12.8742  23.5401
 12.9548  23.9465
 13.0353  24.2277
 13.1158  24.9412
 13.1963  25.7169
 13.2768  26.6343
 13.3573  27.4968
 13.4378  28.6258
 13.5183  29.2212
 13.5988  29.7031
 13.6793  29.6742
 13.7598  29.5413
 13.8403  29.6585
 13.9208  33.442
 14.0013  35.5822
 14.0818  27.9442
 14.1623  27.3082
 14.2428  26.7741
 14.3233  26.2728
 14.4038  26.5909
 14.4843  25.8899
 14.5648  25.749
 14.6453  25.3178
 14.7258  25.2249
 14.8063  25.2774
 14.8868  25.1214
 14.9673  25.0781
 15.0478  25.1051
 15.1283  25.3149
 15.2088  27.8686
 15.2892  24.9473
 15.3698  24.6122
 15.4503  24.6724
 15.5308  24.5812
 15.6113  24.5841
 15.6918  24.6812
 15.7723  24.6737
 15.8528  24.6066
 15.9332  24.8323
 16.0138  24.8921
 16.0943  24.9214
 16.1748  25.0308
 16.2553  27.1201
 16.3358  25.0881
 16.4163  24.9039
 16.4967  24.7961
 16.5773  24.7293
 16.6578  24.5904
 16.7383  24.7682
 16.8188  24.5326
 16.8992  24.5644
 16.9798  24.4874
 17.0603  24.3882
 17.1408  24.385
 17.2213  24.3033
 17.3017  24.2011
 17.3823  24.1071
 17.4628  24.0557
 17.5433  23.9994
 17.6238  24.1042
 17.7042  23.9791
 17.7847  24.029
 17.8653  24.003
 17.9458  24.1061
 18.0263  25.1663
 18.1068  27.8487
 18.1872  24.6158
 18.2678  23.9417
 18.3483  23.7439
 18.4288  23.8433
 18.5093  23.6601
 18.5897  23.631
 18.6703  23.6821
 18.7508  23.6456
 18.8313  23.6282
 18.9118  23.699
 18.9922  23.5291
 19.0727  23.5575
 19.1533  23.7777
 19.2338  23.7038
 19.3143  23.8871
 19.3948  23.9381
 19.4752  23.9258
 19.5558  24.2835
 19.6363  25.0554
 19.7168  30.0231
 19.7973  36.3311
 19.8777  38.2565
 19.9582  25.5131
 20.0388  24.5871
 20.1193  24.3285
 20.1998  24.1384
 20.2803  24.0935
 20.3607  24.0896
 20.4413  23.974
 20.5218  23.8827
 20.6023  24.1922
 20.6828  24.4002
 20.7632  26.8106
 20.8438  24.544
 20.9243  24.203
 21.0048  23.9417
 21.0853  24.143
 21.1658  23.9808
 21.2462  24.0576
 21.3268  24.0724
 21.4073  24.0951
 21.4878  24.205
 21.5683  24.0903
 21.6487  24.1632
 21.7293  24.2488
 21.8098  24.2799
 21.8903  24.2239
 21.9708  24.3717
 22.0512  24.4094
 22.1318  24.5172
 22.2123  24.4762
 22.2928  24.6553
 22.3733  24.6918
 22.4538  24.8394
 22.5343  24.9338
 22.6148  24.9646
 22.6953  25.3411
 22.7758  25.5252
 22.8563  25.7719
 22.9367  26.157
 22.9943  26.7785