File: test-data-xrd/xrd-map-34-ID-E/Data_0126.chi
F:\20151113_APS_34IDE\\Brian\Particle1\OCV\Data_0126.tif
2-Theta Angle (Degrees)
Intensity
       2000
 0.07475  0.0000000E+00
 0.15525  0.0000000E+00
 0.23575  0.0000000E+00
 0.31625  0.0000000E+00
 0.39675  0.0000000E+00
 0.47725  0.0000000E+00
 0.55775  0.0000000E+00
 0.63825  0.0000000E+00
 0.71875  0.0000000E+00
 0.79925  0.0000000E+00
 0.87975  0.0000000E+00
 0.96025  0.0000000E+00
 1.04075  0.0000000E+00
 1.12125  0.0000000E+00
 1.20175  0.0000000E+00
 1.28225  0.0000000E+00
 1.36275  0.0000000E+00
 1.44325  0.0000000E+00
 1.52375  0.0000000E+00
 1.60425  0.0000000E+00
 1.68475  0.0000000E+00
 1.76525  0.0000000E+00
 1.84575  0.0000000E+00
 1.92625  0.0000000E+00
 2.00675  0.0000000E+00
 2.08725  0.0000000E+00
 2.16775  0.0000000E+00
 2.24825  0.0000000E+00
 2.32875  0.0000000E+00
 2.40925  0.0000000E+00
 2.48975  0.0000000E+00
 2.57025  0.0000000E+00
 2.65075  0.0000000E+00
 2.73125  0.0000000E+00
 2.81175  0.0000000E+00
 2.89225  35.9736
 2.97275  35.4313
 3.05325  35.2415
 3.13375  35.6529
 3.21425  35.6598
 3.29475  34.8801
 3.37525  35.3273
 3.45575  34.5524
 3.53625  34.269
 3.61675  33.4188
 3.69725  33.4725
 3.77775  33.1883
 3.85825  32.3295
 3.93875  32.4056
 4.01925  32.7341
 4.09975  32.797
 4.18025  32.4319
 4.26075  32.2817
 4.34125  32.3874
 4.42175  32.6396
 4.50225  32.7015
 4.58275  32.055
 4.66325  32.544
 4.74375  32.4102
 4.82425  32.51
 4.90475  33.1862
 4.98525  33.0141
 5.06575  33.6921
 5.14625  33.4745
 5.22675  33.9758
 5.30725  34.4924
 5.38775  34.3203
 5.46825  34.6423
 5.54875  35.5648
 5.62925  35.2442
 5.70975  35.4725
 5.79025  35.8329
 5.87075  36.6004
 5.95125  52.0139
 6.03175  43.4169
 6.11225  37.2867
 6.19275  37.3202
 6.27325  37.4932
 6.35375  38.1513
 6.43425  38.5022
 6.51475  39.1759
 6.59525  39.3784
 6.67575  40.245
 6.75625  40.7427
 6.83675  41.4621
 6.91725  41.9632
 6.99775  42.2403
 7.07825  42.7223
 7.15875  43.1578
 7.23925  43.8963
 7.31975  43.6113
 7.40025  43.8019
 7.48075  44.1887
 7.56125  44.715
 7.64175  44.4827
 7.72225  44.1333
 7.80275  44.0722
 7.88325  44.064
 7.96375  43.7425
 8.04425  43.0296
 8.12475  42.7749
 8.20525  42.0273
 8.28575  40.9914
 8.36625  39.8499
 8.44675  38.679
 8.52725  37.3779
 8.60775  36.2228
 8.68825  35.3446
 8.76875  33.8241
 8.84925  32.5717
 8.92975  31.7857
 9.01025  30.583
 9.09075  29.7595
 9.17125  28.8884
 9.25175  27.9831
 9.33225  27.3675
 9.41275  26.9081
 9.49325  26.1607
 9.57375  25.6571
 9.65425  25.5864
 9.73475  25.203
 9.81525  24.8343
 9.89575  24.502
 9.97625  24.4325
 10.0567  24.143
 10.1373  23.9107
 10.2178  23.6527
 10.2982  23.3417
 10.3788  23.4333
 10.4593  23.2534
 10.5397  23.0958
 10.6203  23.0071
 10.7007  22.7431
 10.7813  22.7573
 10.8618  22.6555
 10.9422  22.767
 11.0228  22.4921
 11.1033  22.4156
 11.1837  22.2866
 11.2643  22.3314
 11.3447  22.3485
 11.4253  22.4927
 11.5058  22.7464
 11.5862  26.4507
 11.6668  23.033
 11.7473  22.3651
 11.8277  22.3423
 11.9083  22.3737
 11.9887  22.6637
 12.0693  23.5136
 12.1498  23.2474
 12.2302  22.3543
 12.3108  22.5416
 12.3913  22.4656
 12.4718  22.4067
 12.5523  22.5834
 12.6328  22.7309
 12.7133  22.7925
 12.7938  22.8901
 12.8742  23.1542
 12.9548  23.6958
 13.0353  23.9969
 13.1158  24.5958
 13.1963  25.3992
 13.2768  26.3648
 13.3573  27.6124
 13.4378  28.3965
 13.5183  29.1012
 13.5988  29.4596
 13.6793  29.6094
 13.7598  29.4213
 13.8403  28.9485
 13.9208  30.9865
 14.0013  29.7557
 14.0818  27.4461
 14.1623  26.9825
 14.2428  26.4133
 14.3233  25.9249
 14.4038  25.9022
 14.4843  25.535
 14.5648  25.4248
 14.6453  25.163
 14.7258  25.0763
 14.8063  24.7925
 14.8868  24.6921
 14.9673  24.6671
 15.0478  24.6767
 15.1283  24.5731
 15.2088  25.1663
 15.2892  24.5113
 15.3698  24.4267
 15.4503  24.3153
 15.5308  24.2658
 15.6113  24.387
 15.6918  24.4916
 15.7723  24.563
 15.8528  24.4278
 15.9332  24.5261
 16.0138  24.4651
 16.0943  24.6697
 16.1748  24.8052
 16.2553  26.6279
 16.3358  24.9225
 16.4163  24.6303
 16.4967  24.5697
 16.5773  24.4412
 16.6578  24.3995
 16.7383  24.3536
 16.8188  24.2073
 16.8992  24.1767
 16.9798  24.0598
 17.0603  23.9975
 17.1408  24.0663
 17.2213  23.9973
 17.3017  23.9068
 17.3823  23.8993
 17.4628  23.7556
 17.5433  23.7823
 17.6238  23.7967
 17.7042  23.6135
 17.7847  23.6106
 17.8653  23.635
 17.9458  23.8152
 18.0263  24.6998
 18.1068  29.1441
 18.1872  24.7161
 18.2678  23.7651
 18.3483  23.4818
 18.4288  23.5257
 18.5093  23.4163
 18.5897  23.3671
 18.6703  23.3637
 18.7508  23.2712
 18.8313  23.2551
 18.9118  23.1934
 18.9922  23.3241
 19.0727  23.4462
 19.1533  23.4719
 19.2338  23.4456
 19.3143  23.4085
 19.3948  23.5318
 19.4752  23.5975
 19.5558  23.6386
 19.6363  23.8661
 19.7168  25.52
 19.7973  24.8108
 19.8777  25.8049
 19.9582  23.9428
 20.0388  23.6684
 20.1193  23.6192
 20.1998  23.5711
 20.2803  23.509
 20.3607  23.5277
 20.4413  23.522
 20.5218  23.5147
 20.6023  23.6906
 20.6828  24.1021
 20.7632  24.7176
 20.8438  23.8323
 20.9243  23.8109
 21.0048  23.6986
 21.0853  23.7596
 21.1658  23.6538
 21.2462  23.6638
 21.3268  23.7234
 21.4073  23.6896
 21.4878  23.901
 21.5683  23.9154
 21.6487  23.8662
 21.7293  23.9177
 21.8098  23.967
 21.8903  24.0431
 21.9708  24.0552
 22.0512  24.1227
 22.1318  24.1992
 22.2123  24.1142
 22.2928  24.3033
 22.3733  24.3639
 22.4538  24.4199
 22.5343  24.5502
 22.6148  24.8898
 22.6953  24.9248
 22.7758  24.9944
 22.8563  25.4245
 22.9367  25.7461
 22.9943  26.0957