File: test-data-xrd/xrd-map-34-ID-E/Data_0127.chi
F:\20151113_APS_34IDE\\Brian\Particle1\OCV\Data_0127.tif
2-Theta Angle (Degrees)
Intensity
       2000
 0.07475  0.0000000E+00
 0.15525  0.0000000E+00
 0.23575  0.0000000E+00
 0.31625  0.0000000E+00
 0.39675  0.0000000E+00
 0.47725  0.0000000E+00
 0.55775  0.0000000E+00
 0.63825  0.0000000E+00
 0.71875  0.0000000E+00
 0.79925  0.0000000E+00
 0.87975  0.0000000E+00
 0.96025  0.0000000E+00
 1.04075  0.0000000E+00
 1.12125  0.0000000E+00
 1.20175  0.0000000E+00
 1.28225  0.0000000E+00
 1.36275  0.0000000E+00
 1.44325  0.0000000E+00
 1.52375  0.0000000E+00
 1.60425  0.0000000E+00
 1.68475  0.0000000E+00
 1.76525  0.0000000E+00
 1.84575  0.0000000E+00
 1.92625  0.0000000E+00
 2.00675  0.0000000E+00
 2.08725  0.0000000E+00
 2.16775  0.0000000E+00
 2.24825  0.0000000E+00
 2.32875  0.0000000E+00
 2.40925  0.0000000E+00
 2.48975  0.0000000E+00
 2.57025  0.0000000E+00
 2.65075  0.0000000E+00
 2.73125  0.0000000E+00
 2.81175  0.0000000E+00
 2.89225  34.9487
 2.97275  34.7125
 3.05325  35.364
 3.13375  34.9044
 3.21425  35.6249
 3.29475  34.9884
 3.37525  34.1922
 3.45575  34.2464
 3.53625  33.4151
 3.61675  33.2828
 3.69725  32.9118
 3.77775  32.7504
 3.85825  32.5953
 3.93875  32.0319
 4.01925  32.0759
 4.09975  32.1737
 4.18025  31.5853
 4.26075  32.0306
 4.34125  31.6709
 4.42175  32.3093
 4.50225  32.4521
 4.58275  32.3956
 4.66325  33.1108
 4.74375  32.6563
 4.82425  32.4863
 4.90475  32.7008
 4.98525  32.8079
 5.06575  33.4392
 5.14625  33.7144
 5.22675  33.5681
 5.30725  34.0996
 5.38775  34.2305
 5.46825  34.4939
 5.54875  34.885
 5.62925  34.9367
 5.70975  35.2744
 5.79025  35.3116
 5.87075  35.8971
 5.95125  38.5955
 6.03175  38.1663
 6.11225  36.5975
 6.19275  36.5982
 6.27325  37.3659
 6.35375  37.7771
 6.43425  39.2639
 6.51475  39.7427
 6.59525  39.7538
 6.67575  39.9163
 6.75625  40.4384
 6.83675  41.2383
 6.91725  41.6899
 6.99775  42.291
 7.07825  42.7468
 7.15875  42.9196
 7.23925  43.4101
 7.31975  43.4627
 7.40025  43.9136
 7.48075  44.0103
 7.56125  44.0294
 7.64175  44.0286
 7.72225  44.0656
 7.80275  44.0652
 7.88325  43.7252
 7.96375  43.3365
 8.04425  43.0118
 8.12475  42.6487
 8.20525  41.9023
 8.28575  40.7869
 8.36625  40.0099
 8.44675  38.7636
 8.52725  37.6593
 8.60775  36.4309
 8.68825  35.0458
 8.76875  34.0216
 8.84925  32.5361
 8.92975  31.6769
 9.01025  30.6278
 9.09075  29.7885
 9.17125  28.9512
 9.25175  27.9521
 9.33225  27.3506
 9.41275  26.7974
 9.49325  26.3311
 9.57375  25.7898
 9.65425  25.5297
 9.73475  25.1677
 9.81525  24.7259
 9.89575  24.3474
 9.97625  24.3526
 10.0567  24.1588
 10.1373  23.922
 10.2178  23.5068
 10.2982  23.409
 10.3788  23.1831
 10.4593  22.9349
 10.5397  22.9243
 10.6203  22.8889
 10.7007  22.8105
 10.7813  22.6392
 10.8618  22.6375
 10.9422  22.7069
 11.0228  22.532
 11.1033  22.3653
 11.1837  22.3318
 11.2643  22.348
 11.3447  22.3321
 11.4253  22.5569
 11.5058  22.7027
 11.5862  24.5908
 11.6668  22.6458
 11.7473  22.2998
 11.8277  22.379
 11.9083  22.3423
 11.9887  23.2906
 12.0693  23.1826
 12.1498  22.7346
 12.2302  22.4495
 12.3108  22.3686
 12.3913  22.4036
 12.4718  22.5051
 12.5523  22.6174
 12.6328  22.6899
 12.7133  22.7004
 12.7938  22.9678
 12.8742  23.3758
 12.9548  23.4906
 13.0353  23.9753
 13.1158  24.7207
 13.1963  25.3794
 13.2768  26.3727
 13.3573  27.3416
 13.4378  28.4106
 13.5183  29.2422
 13.5988  29.361
 13.6793  29.3939
 13.7598  29.2276
 13.8403  29.0099
 13.9208  31.5158
 14.0013  30.076
 14.0818  27.2849
 14.1623  26.7255
 14.2428  26.4587
 14.3233  26.0055
 14.4038  25.7685
 14.4843  25.4306
 14.5648  25.2631
 14.6453  25.1182
 14.7258  25.0771
 14.8063  24.916
 14.8868  24.6493
 14.9673  24.6445
 15.0478  24.6683
 15.1283  24.8859
 15.2088  25.2728
 15.2892  24.5958
 15.3698  24.3047
 15.4503  24.2995
 15.5308  24.3289
 15.6113  24.2731
 15.6918  24.395
 15.7723  24.4384
 15.8528  24.3673
 15.9332  24.3628
 16.0138  24.3917
 16.0943  24.6079
 16.1748  24.6708
 16.2553  25.9221
 16.3358  24.8457
 16.4163  24.491
 16.4967  24.478
 16.5773  24.3379
 16.6578  24.4014
 16.7383  24.3017
 16.8188  24.2121
 16.8992  24.1137
 16.9798  23.971
 17.0603  24.0179
 17.1408  24.0258
 17.2213  23.9035
 17.3017  23.8194
 17.3823  23.7549
 17.4628  23.6822
 17.5433  23.7547
 17.6238  23.6223
 17.7042  23.662
 17.7847  23.6664
 17.8653  23.613
 17.9458  23.5869
 18.0263  23.7346
 18.1068  24.4017
 18.1872  23.5843
 18.2678  23.4501
 18.3483  23.4383
 18.4288  23.4627
 18.5093  23.3368
 18.5897  23.2813
 18.6703  23.078
 18.7508  23.2015
 18.8313  23.2236
 18.9118  23.2626
 18.9922  23.1194
 19.0727  23.4246
 19.1533  23.2869
 19.2338  23.3447
 19.3143  23.3584
 19.3948  23.3313
 19.4752  23.3328
 19.5558  23.4446
 19.6363  23.6624
 19.7168  24.8687
 19.7973  24.3945
 19.8777  24.6852
 19.9582  23.6014
 20.0388  23.4025
 20.1193  23.5399
 20.1998  23.4829
 20.2803  23.4454
 20.3607  23.5071
 20.4413  23.6915
 20.5218  23.4491
 20.6023  23.6299
 20.6828  23.7591
 20.7632  24.56
 20.8438  23.7532
 20.9243  23.7824
 21.0048  23.7536
 21.0853  23.706
 21.1658  23.6429
 21.2462  23.6625
 21.3268  23.7394
 21.4073  23.6156
 21.4878  23.6945
 21.5683  23.7793
 21.6487  23.909
 21.7293  23.8924
 21.8098  23.9668
 21.8903  24.5539
 21.9708  23.91
 22.0512  23.9475
 22.1318  24.0275
 22.2123  24.1061
 22.2928  24.1641
 22.3733  24.3837
 22.4538  24.5113
 22.5343  24.4418
 22.6148  24.5783
 22.6953  24.8161
 22.7758  25.0141
 22.8563  25.1762
 22.9367  25.6308
 22.9943  26.0395