File: test-data-xrd/xrd-map-34-ID-E/Data_0138.chi
F:\20151113_APS_34IDE\\Brian\Particle1\OCV\Data_0138.tif
2-Theta Angle (Degrees)
Intensity
       2000
 0.07475  0.0000000E+00
 0.15525  0.0000000E+00
 0.23575  0.0000000E+00
 0.31625  0.0000000E+00
 0.39675  0.0000000E+00
 0.47725  0.0000000E+00
 0.55775  0.0000000E+00
 0.63825  0.0000000E+00
 0.71875  0.0000000E+00
 0.79925  0.0000000E+00
 0.87975  0.0000000E+00
 0.96025  0.0000000E+00
 1.04075  0.0000000E+00
 1.12125  0.0000000E+00
 1.20175  0.0000000E+00
 1.28225  0.0000000E+00
 1.36275  0.0000000E+00
 1.44325  0.0000000E+00
 1.52375  0.0000000E+00
 1.60425  0.0000000E+00
 1.68475  0.0000000E+00
 1.76525  0.0000000E+00
 1.84575  0.0000000E+00
 1.92625  0.0000000E+00
 2.00675  0.0000000E+00
 2.08725  0.0000000E+00
 2.16775  0.0000000E+00
 2.24825  0.0000000E+00
 2.32875  0.0000000E+00
 2.40925  0.0000000E+00
 2.48975  0.0000000E+00
 2.57025  0.0000000E+00
 2.65075  0.0000000E+00
 2.73125  0.0000000E+00
 2.81175  0.0000000E+00
 2.89225  33.8026
 2.97275  36.4992
 3.05325  36.4031
 3.13375  35.3211
 3.21425  35.877
 3.29475  35.3181
 3.37525  35.0425
 3.45575  34.4071
 3.53625  34.6787
 3.61675  33.2709
 3.69725  33.1472
 3.77775  33.6962
 3.85825  32.8846
 3.93875  32.9378
 4.01925  32.8026
 4.09975  32.1419
 4.18025  32.3569
 4.26075  32.1041
 4.34125  32.2141
 4.42175  32.5881
 4.50225  32.3206
 4.58275  32.7606
 4.66325  32.8243
 4.74375  32.5858
 4.82425  32.5609
 4.90475  33.4524
 4.98525  32.9943
 5.06575  33.4259
 5.14625  33.7675
 5.22675  33.8756
 5.30725  34.3047
 5.38775  34.2718
 5.46825  34.2481
 5.54875  34.8717
 5.62925  35.1835
 5.70975  35.3958
 5.79025  35.5012
 5.87075  35.659
 5.95125  37.3669
 6.03175  37.6759
 6.11225  36.8824
 6.19275  36.8439
 6.27325  37.3202
 6.35375  38.1306
 6.43425  38.7338
 6.51475  39.1917
 6.59525  39.3909
 6.67575  40.0159
 6.75625  40.5049
 6.83675  41.4579
 6.91725  41.9936
 6.99775  42.4571
 7.07825  42.8338
 7.15875  42.8602
 7.23925  43.4361
 7.31975  43.4488
 7.40025  43.8415
 7.48075  44.2783
 7.56125  44.3014
 7.64175  44.2154
 7.72225  44.3659
 7.80275  44.2689
 7.88325  43.9565
 7.96375  43.6424
 8.04425  43.4199
 8.12475  42.5716
 8.20525  41.9597
 8.28575  41.0177
 8.36625  40.1838
 8.44675  38.8405
 8.52725  37.6791
 8.60775  36.383
 8.68825  35.0648
 8.76875  33.976
 8.84925  32.8907
 8.92975  31.605
 9.01025  30.3599
 9.09075  29.7655
 9.17125  28.9697
 9.25175  27.9006
 9.33225  27.334
 9.41275  26.7534
 9.49325  26.1781
 9.57375  25.8828
 9.65425  25.3892
 9.73475  24.9972
 9.81525  24.7296
 9.89575  24.3637
 9.97625  24.2539
 10.0567  24.2382
 10.1373  23.9085
 10.2178  23.8643
 10.2982  23.4426
 10.3788  23.1573
 10.4593  23.1846
 10.5397  23.1105
 10.6203  22.8699
 10.7007  22.718
 10.7813  22.765
 10.8618  22.5277
 10.9422  22.4895
 11.0228  22.3861
 11.1033  22.3269
 11.1837  22.2239
 11.2643  22.2187
 11.3447  22.3363
 11.4253  22.5357
 11.5058  22.4602
 11.5862  23.2631
 11.6668  22.4283
 11.7473  22.1112
 11.8277  22.2807
 11.9083  22.3248
 11.9887  22.7632
 12.0693  22.6183
 12.1498  22.4697
 12.2302  22.2861
 12.3108  22.3544
 12.3913  22.3901
 12.4718  22.3868
 12.5523  22.533
 12.6328  22.6752
 12.7133  22.8631
 12.7938  22.7698
 12.8742  23.024
 12.9548  23.4712
 13.0353  24.0524
 13.1158  24.6476
 13.1963  25.4042
 13.2768  26.4195
 13.3573  27.4413
 13.4378  28.3646
 13.5183  29.2282
 13.5988  29.5876
 13.6793  29.5179
 13.7598  29.0487
 13.8403  28.7269
 13.9208  30.4555
 14.0013  29.0767
 14.0818  27.5136
 14.1623  26.6114
 14.2428  26.2575
 14.3233  26.0937
 14.4038  25.8595
 14.4843  25.5487
 14.5648  25.3704
 14.6453  25.1242
 14.7258  24.9369
 14.8063  24.824
 14.8868  24.7504
 14.9673  24.5886
 15.0478  24.6099
 15.1283  24.6925
 15.2088  24.8308
 15.2892  24.4714
 15.3698  24.3992
 15.4503  24.292
 15.5308  24.2359
 15.6113  24.2428
 15.6918  24.4288
 15.7723  24.4572
 15.8528  24.3237
 15.9332  24.3804
 16.0138  24.5986
 16.0943  24.5311
 16.1748  24.6453
 16.2553  26.2937
 16.3358  24.7566
 16.4163  24.387
 16.4967  24.3444
 16.5773  24.42
 16.6578  24.3112
 16.7383  24.262
 16.8188  24.1565
 16.8992  24.178
 16.9798  24.0831
 17.0603  23.8679
 17.1408  23.8757
 17.2213  23.8176
 17.3017  23.7833
 17.3823  23.7891
 17.4628  23.7746
 17.5433  23.7287
 17.6238  23.667
 17.7042  23.4756
 17.7847  23.4453
 17.8653  23.4486
 17.9458  23.3359
 18.0263  23.6001
 18.1068  23.8209
 18.1872  23.2944
 18.2678  23.2421
 18.3483  23.2451
 18.4288  23.3567
 18.5093  23.2509
 18.5897  23.315
 18.6703  23.237
 18.7508  23.1411
 18.8313  23.1976
 18.9118  23.1725
 18.9922  23.1589
 19.0727  23.2494
 19.1533  23.6221
 19.2338  23.2343
 19.3143  23.3389
 19.3948  23.3318
 19.4752  23.3239
 19.5558  23.2491
 19.6363  23.4434
 19.7168  23.8032
 19.7973  23.6308
 19.8777  23.8913
 19.9582  23.3334
 20.0388  23.3343
 20.1193  23.3282
 20.1998  23.3208
 20.2803  23.3236
 20.3607  23.2814
 20.4413  23.3609
 20.5218  23.3836
 20.6023  23.5244
 20.6828  23.6213
 20.7632  24.0086
 20.8438  23.5812
 20.9243  23.6563
 21.0048  23.6127
 21.0853  23.5686
 21.1658  23.571
 21.2462  23.6098
 21.3268  23.545
 21.4073  23.6144
 21.4878  23.7619
 21.5683  23.7749
 21.6487  23.7352
 21.7293  23.8266
 21.8098  23.8991
 21.8903  23.9355
 21.9708  23.9261
 22.0512  24.0214
 22.1318  24.039
 22.2123  23.9518
 22.2928  24.0773
 22.3733  24.1354
 22.4538  24.4251
 22.5343  24.403
 22.6148  24.5196
 22.6953  24.7444
 22.7758  24.8879
 22.8563  25.2789
 22.9367  25.5585
 22.9943  25.8458