File: test-data-xrd/xrd-map-34-ID-E/Data_0015.chi
F:\20151113_APS_34IDE\\Brian\Particle1\OCV\Data_0015.tif
2-Theta Angle (Degrees)
Intensity
       2000
 0.07475  0.0000000E+00
 0.15525  0.0000000E+00
 0.23575  0.0000000E+00
 0.31625  0.0000000E+00
 0.39675  0.0000000E+00
 0.47725  0.0000000E+00
 0.55775  0.0000000E+00
 0.63825  0.0000000E+00
 0.71875  0.0000000E+00
 0.79925  0.0000000E+00
 0.87975  0.0000000E+00
 0.96025  0.0000000E+00
 1.04075  0.0000000E+00
 1.12125  0.0000000E+00
 1.20175  0.0000000E+00
 1.28225  0.0000000E+00
 1.36275  0.0000000E+00
 1.44325  0.0000000E+00
 1.52375  0.0000000E+00
 1.60425  0.0000000E+00
 1.68475  0.0000000E+00
 1.76525  0.0000000E+00
 1.84575  0.0000000E+00
 1.92625  0.0000000E+00
 2.00675  0.0000000E+00
 2.08725  0.0000000E+00
 2.16775  0.0000000E+00
 2.24825  0.0000000E+00
 2.32875  0.0000000E+00
 2.40925  0.0000000E+00
 2.48975  0.0000000E+00
 2.57025  0.0000000E+00
 2.65075  0.0000000E+00
 2.73125  0.0000000E+00
 2.81175  0.0000000E+00
 2.89225  35.4998
 2.97275  37.2015
 3.05325  36.251
 3.13375  36.2946
 3.21425  35.0805
 3.29475  34.7965
 3.37525  34.9229
 3.45575  33.9038
 3.53625  34.0581
 3.61675  33.3762
 3.69725  33.2865
 3.77775  32.9552
 3.85825  32.9957
 3.93875  32.4741
 4.01925  32.8797
 4.09975  32.6772
 4.18025  32.4707
 4.26075  32.7359
 4.34125  32.8617
 4.42175  33.0128
 4.50225  33.0494
 4.58275  32.422
 4.66325  32.8377
 4.74375  33.1379
 4.82425  32.6854
 4.90475  33.2925
 4.98525  33.2351
 5.06575  33.4185
 5.14625  34.0005
 5.22675  33.8126
 5.30725  34.158
 5.38775  34.7063
 5.46825  34.8885
 5.54875  35.047
 5.62925  35.4347
 5.70975  35.706
 5.79025  36.0598
 5.87075  36.3799
 5.95125  43.2711
 6.03175  43.2341
 6.11225  37.373
 6.19275  37.3202
 6.27325  37.5335
 6.35375  38.2426
 6.43425  38.8929
 6.51475  39.709
 6.59525  39.7711
 6.67575  40.6124
 6.75625  41.0203
 6.83675  41.6194
 6.91725  42.1138
 6.99775  42.5096
 7.07825  43.0529
 7.15875  43.3489
 7.23925  43.7651
 7.31975  44.2159
 7.40025  44.3573
 7.48075  44.6172
 7.56125  44.8188
 7.64175  44.9409
 7.72225  44.9501
 7.80275  44.6999
 7.88325  44.6772
 7.96375  44.1632
 8.04425  43.6647
 8.12475  43.3804
 8.20525  42.3969
 8.28575  41.6713
 8.36625  40.7108
 8.44675  39.2872
 8.52725  38.2484
 8.60775  37.2174
 8.68825  35.8427
 8.76875  34.8275
 8.84925  33.4799
 8.92975  32.3624
 9.01025  31.5873
 9.09075  30.5373
 9.17125  29.732
 9.25175  28.9756
 9.33225  28.3904
 9.41275  27.5527
 9.49325  27.0863
 9.57375  26.528
 9.65425  26.2506
 9.73475  25.7293
 9.81525  25.7156
 9.89575  25.1195
 9.97625  24.9704
 10.0567  24.738
 10.1373  24.663
 10.2178  24.4179
 10.2982  24.335
 10.3788  24.1616
 10.4593  23.9324
 10.5397  23.8644
 10.6203  23.5681
 10.7007  23.5762
 10.7813  23.3391
 10.8618  23.3626
 10.9422  23.184
 11.0228  23.0904
 11.1033  23.1164
 11.1837  23.0191
 11.2643  22.9068
 11.3447  23.0131
 11.4253  23.2275
 11.5058  23.4384
 11.5862  28.8682
 11.6668  23.7749
 11.7473  22.9305
 11.8277  22.9146
 11.9083  22.9228
 11.9887  23.7354
 12.0693  24.6964
 12.1498  24.0752
 12.2302  22.9346
 12.3108  23.1309
 12.3913  22.981
 12.4718  23.1196
 12.5523  23.125
 12.6328  23.3564
 12.7133  23.4669
 12.7938  23.5878
 12.8742  23.8233
 12.9548  24.1137
 13.0353  24.5655
 13.1158  25.2934
 13.1963  25.9642
 13.2768  27.148
 13.3573  28.0583
 13.4378  28.9935
 13.5183  29.7482
 13.5988  30.1427
 13.6793  30.1379
 13.7598  29.8673
 13.8403  30.0362
 13.9208  35.1949
 14.0013  32.6567
 14.0818  28.2294
 14.1623  27.5887
 14.2428  26.9848
 14.3233  26.7298
 14.4038  26.4026
 14.4843  26.0477
 14.5648  26.0466
 14.6453  25.7727
 14.7258  25.6203
 14.8063  25.3982
 14.8868  25.4594
 14.9673  25.4304
 15.0478  25.3553
 15.1283  25.4151
 15.2088  26.4282
 15.2892  25.2143
 15.3698  24.9759
 15.4503  24.8215
 15.5308  24.8901
 15.6113  24.8586
 15.6918  25.0087
 15.7723  25.0429
 15.8528  24.9431
 15.9332  24.9521
 16.0138  25.2154
 16.0943  25.075
 16.1748  25.358
 16.2553  26.8654
 16.3358  25.3839
 16.4163  25.2579
 16.4967  25.1434
 16.5773  25.2239
 16.6578  24.9502
 16.7383  24.7848
 16.8188  24.7644
 16.8992  24.8715
 16.9798  24.7639
 17.0603  24.5853
 17.1408  24.5901
 17.2213  24.4847
 17.3017  24.5646
 17.3823  24.3477
 17.4628  24.2413
 17.5433  24.3499
 17.6238  24.3072
 17.7042  24.2821
 17.7847  24.2746
 17.8653  24.186
 17.9458  24.3846
 18.0263  24.9341
 18.1068  27.1477
 18.1872  24.5482
 18.2678  24.1175
 18.3483  24.0347
 18.4288  24.1555
 18.5093  23.9028
 18.5897  24.07
 18.6703  23.8104
 18.7508  23.9023
 18.8313  23.7582
 18.9118  23.8542
 18.9922  23.8639
 19.0727  23.969
 19.1533  23.8266
 19.2338  23.899
 19.3143  24.0368
 19.3948  24.0553
 19.4752  23.9861
 19.5558  24.2188
 19.6363  24.5836
 19.7168  27.3608
 19.7973  25.3408
 19.8777  26.6609
 19.9582  24.3849
 20.0388  24.237
 20.1193  24.2039
 20.1998  24.1451
 20.2803  24.1074
 20.3607  24.0305
 20.4413  24.1758
 20.5218  24.1519
 20.6023  24.3579
 20.6828  24.7359
 20.7632  26.146
 20.8438  24.6149
 20.9243  24.4167
 21.0048  24.3115
 21.0853  24.4007
 21.1658  24.1163
 21.2462  24.2453
 21.3268  24.1604
 21.4073  24.2929
 21.4878  24.406
 21.5683  24.3989
 21.6487  24.54
 21.7293  24.5555
 21.8098  24.6243
 21.8903  24.4746
 21.9708  24.5346
 22.0512  24.5667
 22.1318  24.7124
 22.2123  24.7453
 22.2928  24.8029
 22.3733  25.1194
 22.4538  25.0058
 22.5343  25.2209
 22.6148  25.3899
 22.6953  25.4461
 22.7758  25.6003
 22.8563  25.8462
 22.9367  26.3397
 22.9943  26.5958