File: test-data-xrd/xrd-map-34-ID-E/Data_0107.chi
F:\20151113_APS_34IDE\\Brian\Particle1\OCV\Data_0107.tif
2-Theta Angle (Degrees)
Intensity
       2000
 0.07475  0.0000000E+00
 0.15525  0.0000000E+00
 0.23575  0.0000000E+00
 0.31625  0.0000000E+00
 0.39675  0.0000000E+00
 0.47725  0.0000000E+00
 0.55775  0.0000000E+00
 0.63825  0.0000000E+00
 0.71875  0.0000000E+00
 0.79925  0.0000000E+00
 0.87975  0.0000000E+00
 0.96025  0.0000000E+00
 1.04075  0.0000000E+00
 1.12125  0.0000000E+00
 1.20175  0.0000000E+00
 1.28225  0.0000000E+00
 1.36275  0.0000000E+00
 1.44325  0.0000000E+00
 1.52375  0.0000000E+00
 1.60425  0.0000000E+00
 1.68475  0.0000000E+00
 1.76525  0.0000000E+00
 1.84575  0.0000000E+00
 1.92625  0.0000000E+00
 2.00675  0.0000000E+00
 2.08725  0.0000000E+00
 2.16775  0.0000000E+00
 2.24825  0.0000000E+00
 2.32875  0.0000000E+00
 2.40925  0.0000000E+00
 2.48975  0.0000000E+00
 2.57025  0.0000000E+00
 2.65075  0.0000000E+00
 2.73125  0.0000000E+00
 2.81175  0.0000000E+00
 2.89225  33.8902
 2.97275  34.6699
 3.05325  36.0978
 3.13375  34.3564
 3.21425  35.5174
 3.29475  34.0323
 3.37525  34.8491
 3.45575  34.2914
 3.53625  34.6579
 3.61675  33.5548
 3.69725  33.0649
 3.77775  33.1548
 3.85825  33.3497
 3.93875  32.9249
 4.01925  33.1722
 4.09975  32.6192
 4.18025  32.0465
 4.26075  32.2416
 4.34125  32.4971
 4.42175  32.3902
 4.50225  32.4612
 4.58275  32.1426
 4.66325  32.6784
 4.74375  32.9775
 4.82425  32.8043
 4.90475  32.8051
 4.98525  32.7596
 5.06575  33.3794
 5.14625  33.5826
 5.22675  33.979
 5.30725  33.9938
 5.38775  34.258
 5.46825  34.5584
 5.54875  35.0964
 5.62925  35.4761
 5.70975  35.4706
 5.79025  35.9166
 5.87075  37.1156
 5.95125  58.3195
 6.03175  55.5757
 6.11225  37.6093
 6.19275  37.4526
 6.27325  37.8196
 6.35375  37.9999
 6.43425  38.7627
 6.51475  38.9667
 6.59525  39.6303
 6.67575  40.0292
 6.75625  40.5581
 6.83675  41.1855
 6.91725  41.8669
 6.99775  41.9196
 7.07825  42.398
 7.15875  43.154
 7.23925  43.414
 7.31975  43.6699
 7.40025  43.7757
 7.48075  43.7697
 7.56125  43.8906
 7.64175  43.9175
 7.72225  44.0499
 7.80275  43.9597
 7.88325  43.385
 7.96375  43.3093
 8.04425  42.7904
 8.12475  42.3514
 8.20525  41.3875
 8.28575  40.6129
 8.36625  39.6071
 8.44675  38.5162
 8.52725  37.4379
 8.60775  36.0656
 8.68825  34.8584
 8.76875  33.6269
 8.84925  32.6048
 8.92975  31.4185
 9.01025  30.3543
 9.09075  29.4761
 9.17125  28.7361
 9.25175  27.7897
 9.33225  27.3052
 9.41275  26.6237
 9.49325  26.221
 9.57375  25.8762
 9.65425  25.2937
 9.73475  24.8244
 9.81525  24.5551
 9.89575  24.3965
 9.97625  24.0513
 10.0567  23.8571
 10.1373  23.6085
 10.2178  23.3979
 10.2982  23.2907
 10.3788  23.2757
 10.4593  23.0004
 10.5397  22.9794
 10.6203  22.8806
 10.7007  22.611
 10.7813  22.4439
 10.8618  22.5579
 10.9422  22.485
 11.0228  22.2165
 11.1033  22.3262
 11.1837  22.3126
 11.2643  22.2405
 11.3447  22.3395
 11.4253  22.6403
 11.5058  22.7867
 11.5862  26.4904
 11.6668  22.9737
 11.7473  22.3411
 11.8277  22.2159
 11.9083  22.2887
 11.9887  22.7766
 12.0693  23.1161
 12.1498  22.8846
 12.2302  22.1911
 12.3108  22.4246
 12.3913  22.2374
 12.4718  22.4584
 12.5523  22.528
 12.6328  22.6681
 12.7133  22.8198
 12.7938  22.8147
 12.8742  23.237
 12.9548  23.5606
 13.0353  23.7843
 13.1158  24.5488
 13.1963  25.5546
 13.2768  26.4563
 13.3573  27.4745
 13.4378  28.2301
 13.5183  29.1122
 13.5988  29.4959
 13.6793  29.5699
 13.7598  29.5629
 13.8403  30.0862
 13.9208  42.6985
 14.0013  43.8804
 14.0818  28.57
 14.1623  27.1711
 14.2428  26.5397
 14.3233  26.1406
 14.4038  25.7385
 14.4843  25.4874
 14.5648  25.3576
 14.6453  25.0586
 14.7258  24.9345
 14.8063  24.9134
 14.8868  24.5812
 14.9673  24.5988
 15.0478  24.7206
 15.1283  25.2546
 15.2088  27.9099
 15.2892  24.9908
 15.3698  24.5655
 15.4503  24.3384
 15.5308  24.4247
 15.6113  24.3172
 15.6918  24.4993
 15.7723  24.3318
 15.8528  24.389
 15.9332  24.4741
 16.0138  24.4608
 16.0943  24.5398
 16.1748  24.6825
 16.2553  25.4184
 16.3358  24.729
 16.4163  24.5352
 16.4967  24.3207
 16.5773  24.769
 16.6578  24.3588
 16.7383  24.3149
 16.8188  24.1957
 16.8992  24.1121
 16.9798  24.0518
 17.0603  23.9111
 17.1408  23.9457
 17.2213  23.9995
 17.3017  23.8977
 17.3823  23.8173
 17.4628  23.7817
 17.5433  23.7928
 17.6238  23.7833
 17.7042  23.6765
 17.7847  23.6202
 17.8653  23.661
 17.9458  23.6143
 18.0263  23.8186
 18.1068  24.1699
 18.1872  23.6532
 18.2678  23.4589
 18.3483  23.6592
 18.4288  23.5087
 18.5093  23.4975
 18.5897  23.4254
 18.6703  23.2394
 18.7508  23.2736
 18.8313  23.3443
 18.9118  23.2835
 18.9922  23.4003
 19.0727  23.2728
 19.1533  23.3165
 19.2338  23.2861
 19.3143  23.3669
 19.3948  23.4916
 19.4752  23.4245
 19.5558  23.621
 19.6363  23.9153
 19.7168  26.0105
 19.7973  26.3847
 19.8777  30.1175
 19.9582  24.0185
 20.0388  23.6684
 20.1193  23.5874
 20.1998  23.5429
 20.2803  23.5561
 20.3607  23.5732
 20.4413  23.5334
 20.5218  23.4344
 20.6023  23.6146
 20.6828  24.1167
 20.7632  26.681
 20.8438  24.1906
 20.9243  23.7762
 21.0048  23.6255
 21.0853  23.5948
 21.1658  23.6097
 21.2462  23.6352
 21.3268  23.6683
 21.4073  23.745
 21.4878  23.6155
 21.5683  23.6662
 21.6487  23.8154
 21.7293  23.9379
 21.8098  23.9798
 21.8903  23.9039
 21.9708  24.0182
 22.0512  23.9386
 22.1318  24.1207
 22.2123  24.079
 22.2928  24.1405
 22.3733  24.3286
 22.4538  24.4271
 22.5343  24.5552
 22.6148  24.6151
 22.6953  24.8998
 22.7758  25.0267
 22.8563  25.2434
 22.9367  25.6983
 22.9943  26.1956