File: test-data-xrd/xrd-map-34-ID-E/Data_0068.chi
F:\20151113_APS_34IDE\\Brian\Particle1\OCV\Data_0068.tif
2-Theta Angle (Degrees)
Intensity
       2000
 0.07475  0.0000000E+00
 0.15525  0.0000000E+00
 0.23575  0.0000000E+00
 0.31625  0.0000000E+00
 0.39675  0.0000000E+00
 0.47725  0.0000000E+00
 0.55775  0.0000000E+00
 0.63825  0.0000000E+00
 0.71875  0.0000000E+00
 0.79925  0.0000000E+00
 0.87975  0.0000000E+00
 0.96025  0.0000000E+00
 1.04075  0.0000000E+00
 1.12125  0.0000000E+00
 1.20175  0.0000000E+00
 1.28225  0.0000000E+00
 1.36275  0.0000000E+00
 1.44325  0.0000000E+00
 1.52375  0.0000000E+00
 1.60425  0.0000000E+00
 1.68475  0.0000000E+00
 1.76525  0.0000000E+00
 1.84575  0.0000000E+00
 1.92625  0.0000000E+00
 2.00675  0.0000000E+00
 2.08725  0.0000000E+00
 2.16775  0.0000000E+00
 2.24825  0.0000000E+00
 2.32875  0.0000000E+00
 2.40925  0.0000000E+00
 2.48975  0.0000000E+00
 2.57025  0.0000000E+00
 2.65075  0.0000000E+00
 2.73125  0.0000000E+00
 2.81175  0.0000000E+00
 2.89225  32.885
 2.97275  36.0436
 3.05325  34.1396
 3.13375  35.6218
 3.21425  35.1885
 3.29475  34.6017
 3.37525  34.9412
 3.45575  34.5047
 3.53625  33.7684
 3.61675  32.9147
 3.69725  33.062
 3.77775  32.5912
 3.85825  32.4712
 3.93875  32.7906
 4.01925  32.3011
 4.09975  32.8945
 4.18025  32.0834
 4.26075  32.106
 4.34125  32.1238
 4.42175  32.4344
 4.50225  32.4093
 4.58275  32.524
 4.66325  32.8467
 4.74375  32.6375
 4.82425  32.6318
 4.90475  32.6452
 4.98525  32.6284
 5.06575  33.2854
 5.14625  33.5295
 5.22675  33.9679
 5.30725  33.9629
 5.38775  34.3417
 5.46825  34.5002
 5.54875  34.4675
 5.62925  35.0811
 5.70975  35.4772
 5.79025  36.3445
 5.87075  38.0368
 5.95125  101.756
 6.03175  47.8819
 6.11225  38.1604
 6.19275  37.307
 6.27325  37.2264
 6.35375  38.0473
 6.43425  38.499
 6.51475  38.6081
 6.59525  39.0735
 6.67575  39.6768
 6.75625  40.749
 6.83675  41.1874
 6.91725  41.6839
 6.99775  41.9228
 7.07825  42.4034
 7.15875  42.8482
 7.23925  43.0293
 7.31975  43.3711
 7.40025  43.9971
 7.48075  43.7056
 7.56125  44.1258
 7.64175  43.9658
 7.72225  44.1474
 7.80275  43.8998
 7.88325  43.2603
 7.96375  43.0948
 8.04425  42.9626
 8.12475  42.1023
 8.20525  41.4634
 8.28575  40.4669
 8.36625  39.573
 8.44675  38.2285
 8.52725  37.4578
 8.60775  35.7422
 8.68825  34.6327
 8.76875  33.7038
 8.84925  32.502
 8.92975  31.5907
 9.01025  30.4966
 9.09075  29.4869
 9.17125  28.5847
 9.25175  28.1293
 9.33225  27.2537
 9.41275  26.8164
 9.49325  26.407
 9.57375  25.897
 9.65425  25.5578
 9.73475  25.0612
 9.81525  24.8525
 9.89575  24.5251
 9.97625  24.279
 10.0567  24.2431
 10.1373  23.9296
 10.2178  23.7254
 10.2982  23.6924
 10.3788  23.2968
 10.4593  23.1468
 10.5397  23.1536
 10.6203  23.0336
 10.7007  22.9663
 10.7813  22.7366
 10.8618  22.6922
 10.9422  22.761
 11.0228  22.7336
 11.1033  22.5896
 11.1837  22.4678
 11.2643  22.564
 11.3447  22.5627
 11.4253  22.868
 11.5058  23.6371
 11.5862  39.5175
 11.6668  25.158
 11.7473  22.8196
 11.8277  22.7069
 11.9083  22.7706
 11.9887  24.5315
 12.0693  24.0039
 12.1498  24.5697
 12.2302  22.787
 12.3108  22.6502
 12.3913  22.593
 12.4718  22.6444
 12.5523  22.6572
 12.6328  22.8702
 12.7133  22.8209
 12.7938  23.2153
 12.8742  23.4999
 12.9548  23.7539
 13.0353  24.1624
 13.1158  24.7498
 13.1963  25.4629
 13.2768  26.5008
 13.3573  27.4858
 13.4378  28.503
 13.5183  29.1974
 13.5988  29.7836
 13.6793  29.836
 13.7598  29.6452
 13.8403  29.6687
 13.9208  36.2338
 14.0013  47.507
 14.0818  28.5166
 14.1623  27.4547
 14.2428  26.725
 14.3233  26.1563
 14.4038  25.96
 14.4843  25.6068
 14.5648  25.5525
 14.6453  25.2713
 14.7258  25.1759
 14.8063  25.0407
 14.8868  24.9104
 14.9673  24.8645
 15.0478  24.723
 15.1283  25.1071
 15.2088  27.997
 15.2892  24.8829
 15.3698  24.6174
 15.4503  24.4638
 15.5308  24.553
 15.6113  24.4422
 15.6918  24.643
 15.7723  24.7419
 15.8528  24.611
 15.9332  24.6582
 16.0138  24.6545
 16.0943  24.6735
 16.1748  24.9849
 16.2553  27.6136
 16.3358  25.1244
 16.4163  24.9134
 16.4967  24.7148
 16.5773  24.6494
 16.6578  24.5139
 16.7383  24.4934
 16.8188  24.5507
 16.8992  24.437
 16.9798  24.3466
 17.0603  24.2182
 17.1408  24.2808
 17.2213  24.127
 17.3017  24.057
 17.3823  24.0539
 17.4628  23.9841
 17.5433  23.9548
 17.6238  23.9276
 17.7042  24.006
 17.7847  23.8477
 17.8653  23.9405
 17.9458  23.9762
 18.0263  25.5289
 18.1068  29.811
 18.1872  24.4564
 18.2678  23.7888
 18.3483  23.8341
 18.4288  23.6601
 18.5093  23.6606
 18.5897  23.6618
 18.6703  23.4195
 18.7508  23.5764
 18.8313  23.4982
 18.9118  23.4671
 18.9922  23.4288
 19.0727  23.5338
 19.1533  23.5722
 19.2338  23.4145
 19.3143  23.7001
 19.3948  23.6279
 19.4752  23.6852
 19.5558  23.8393
 19.6363  24.2887
 19.7168  26.341
 19.7973  26.0436
 19.8777  30.7148
 19.9582  24.4741
 20.0388  23.959
 20.1193  23.999
 20.1998  23.7473
 20.2803  23.7591
 20.3607  23.8614
 20.4413  23.9137
 20.5218  23.8097
 20.6023  24.013
 20.6828  24.4646
 20.7632  27.7386
 20.8438  24.493
 20.9243  24.0089
 21.0048  23.9869
 21.0853  24.1128
 21.1658  23.9245
 21.2462  23.9671
 21.3268  23.8749
 21.4073  23.9132
 21.4878  24.046
 21.5683  24.0532
 21.6487  24.264
 21.7293  24.1962
 21.8098  24.1728
 21.8903  24.2823
 21.9708  24.2724
 22.0512  24.3293
 22.1318  24.4509
 22.2123  24.3861
 22.2928  24.4234
 22.3733  24.5975
 22.4538  24.6695
 22.5343  24.7946
 22.6148  24.9403
 22.6953  25.1531
 22.7758  25.3449
 22.8563  25.5661
 22.9367  26.0018
 22.9943  26.2947