File: test-data-xrd/xrd-map-34-ID-E/Data_0097.chi
F:\20151113_APS_34IDE\\Brian\Particle1\OCV\Data_0097.tif
2-Theta Angle (Degrees)
Intensity
       2000
 0.07475  0.0000000E+00
 0.15525  0.0000000E+00
 0.23575  0.0000000E+00
 0.31625  0.0000000E+00
 0.39675  0.0000000E+00
 0.47725  0.0000000E+00
 0.55775  0.0000000E+00
 0.63825  0.0000000E+00
 0.71875  0.0000000E+00
 0.79925  0.0000000E+00
 0.87975  0.0000000E+00
 0.96025  0.0000000E+00
 1.04075  0.0000000E+00
 1.12125  0.0000000E+00
 1.20175  0.0000000E+00
 1.28225  0.0000000E+00
 1.36275  0.0000000E+00
 1.44325  0.0000000E+00
 1.52375  0.0000000E+00
 1.60425  0.0000000E+00
 1.68475  0.0000000E+00
 1.76525  0.0000000E+00
 1.84575  0.0000000E+00
 1.92625  0.0000000E+00
 2.00675  0.0000000E+00
 2.08725  0.0000000E+00
 2.16775  0.0000000E+00
 2.24825  0.0000000E+00
 2.32875  0.0000000E+00
 2.40925  0.0000000E+00
 2.48975  0.0000000E+00
 2.57025  0.0000000E+00
 2.65075  0.0000000E+00
 2.73125  0.0000000E+00
 2.81175  0.0000000E+00
 2.89225  33.9588
 2.97275  36.6655
 3.05325  36.5005
 3.13375  34.9144
 3.21425  36.2279
 3.29475  35.678
 3.37525  34.5983
 3.45575  34.586
 3.53625  34.0786
 3.61675  34.2517
 3.69725  34.0456
 3.77775  33.8278
 3.85825  33.7063
 3.93875  33.2311
 4.01925  33.1049
 4.09975  32.6659
 4.18025  32.3758
 4.26075  32.5274
 4.34125  32.7391
 4.42175  32.4366
 4.50225  33.0257
 4.58275  33.1331
 4.66325  33.3575
 4.74375  33.0205
 4.82425  33.052
 4.90475  32.9823
 4.98525  33.4181
 5.06575  33.9634
 5.14625  33.9159
 5.22675  34.5991
 5.30725  34.7502
 5.38775  35.0748
 5.46825  34.8963
 5.54875  35.7222
 5.62925  35.5429
 5.70975  35.5514
 5.79025  36.153
 5.87075  36.2473
 5.95125  39.3014
 6.03175  38.6073
 6.11225  37.0849
 6.19275  37.281
 6.27325  37.7713
 6.35375  38.4201
 6.43425  38.9238
 6.51475  39.5052
 6.59525  39.8598
 6.67575  40.5676
 6.75625  41.1379
 6.83675  41.9069
 6.91725  42.4543
 6.99775  43.0231
 7.07825  43.1912
 7.15875  43.7302
 7.23925  44.0711
 7.31975  44.3022
 7.40025  44.8502
 7.48075  44.3753
 7.56125  44.9422
 7.64175  44.8406
 7.72225  44.8515
 7.80275  44.361
 7.88325  44.4347
 7.96375  44.1916
 8.04425  43.7015
 8.12475  43.2314
 8.20525  42.3626
 8.28575  41.1203
 8.36625  40.3705
 8.44675  39.0272
 8.52725  38.1285
 8.60775  36.4658
 8.68825  35.4991
 8.76875  33.9614
 8.84925  32.896
 8.92975  31.9155
 9.01025  30.7634
 9.09075  29.8194
 9.17125  29.0259
 9.25175  28.0358
 9.33225  27.5704
 9.41275  26.9391
 9.49325  26.4812
 9.57375  26.0634
 9.65425  25.5896
 9.73475  25.1536
 9.81525  25.0469
 9.89575  24.5827
 9.97625  24.289
 10.0567  24.0662
 10.1373  23.7974
 10.2178  23.8044
 10.2982  23.6882
 10.3788  23.3653
 10.4593  23.1808
 10.5397  23.21
 10.6203  22.8441
 10.7007  22.8285
 10.7813  22.7611
 10.8618  22.7083
 10.9422  22.6482
 11.0228  22.4434
 11.1033  22.6039
 11.1837  22.4682
 11.2643  22.2111
 11.3447  22.4125
 11.4253  22.6231
 11.5058  22.8393
 11.5862  26.7933
 11.6668  22.9583
 11.7473  22.457
 11.8277  22.4158
 11.9083  22.3475
 11.9887  22.6441
 12.0693  22.8981
 12.1498  23.1412
 12.2302  22.4243
 12.3108  22.4285
 12.3913  22.4721
 12.4718  22.6075
 12.5523  22.653
 12.6328  22.7597
 12.7133  22.9542
 12.7938  23.0861
 12.8742  23.3661
 12.9548  23.644
 13.0353  24.0864
 13.1158  24.9571
 13.1963  25.504
 13.2768  26.6117
 13.3573  27.6813
 13.4378  28.5009
 13.5183  29.3205
 13.5988  30.0209
 13.6793  29.7986
 13.7598  29.9332
 13.8403  30.234
 13.9208  41.8255
 14.0013  39.3049
 14.0818  28.3272
 14.1623  27.3405
 14.2428  26.7122
 14.3233  26.3108
 14.4038  26.0465
 14.4843  25.6784
 14.5648  25.6472
 14.6453  25.1878
 14.7258  25.1342
 14.8063  25.0206
 14.8868  24.9157
 14.9673  24.8335
 15.0478  24.8742
 15.1283  24.8736
 15.2088  25.4505
 15.2892  24.6613
 15.3698  24.5986
 15.4503  24.442
 15.5308  24.5316
 15.6113  24.4397
 15.6918  24.5074
 15.7723  24.7079
 15.8528  24.5073
 15.9332  24.5495
 16.0138  24.6813
 16.0943  24.6676
 16.1748  24.8222
 16.2553  25.2976
 16.3358  24.8694
 16.4163  24.6735
 16.4967  24.6839
 16.5773  24.5076
 16.6578  24.5279
 16.7383  24.4343
 16.8188  24.1612
 16.8992  24.2077
 16.9798  24.3057
 17.0603  23.9558
 17.1408  24.0667
 17.2213  24.1143
 17.3017  23.9327
 17.3823  23.862
 17.4628  23.9742
 17.5433  23.9149
 17.6238  23.8488
 17.7042  23.6656
 17.7847  23.733
 17.8653  23.6384
 17.9458  23.6749
 18.0263  24.0543
 18.1068  24.4154
 18.1872  23.8139
 18.2678  23.5346
 18.3483  23.5509
 18.4288  23.3773
 18.5093  23.53
 18.5897  23.5075
 18.6703  23.3413
 18.7508  23.3123
 18.8313  23.2087
 18.9118  23.3448
 18.9922  23.3046
 19.0727  23.4466
 19.1533  23.3179
 19.2338  23.3839
 19.3143  23.4887
 19.3948  23.5369
 19.4752  23.5994
 19.5558  23.6519
 19.6363  23.8155
 19.7168  25.2366
 19.7973  24.7642
 19.8777  25.454
 19.9582  23.7545
 20.0388  23.6021
 20.1193  23.6498
 20.1998  23.4646
 20.2803  23.4679
 20.3607  23.5436
 20.4413  23.5741
 20.5218  23.611
 20.6023  23.827
 20.6828  23.9246
 20.7632  25.191
 20.8438  23.935
 20.9243  23.8344
 21.0048  23.729
 21.0853  23.6676
 21.1658  23.6169
 21.2462  23.7617
 21.3268  23.7704
 21.4073  23.7795
 21.4878  23.8788
 21.5683  23.8116
 21.6487  23.9481
 21.7293  24.0388
 21.8098  23.9176
 21.8903  24.1155
 21.9708  24.1118
 22.0512  24.0455
 22.1318  24.0721
 22.2123  24.2057
 22.2928  24.189
 22.3733  24.4488
 22.4538  24.5588
 22.5343  24.6014
 22.6148  24.6506
 22.6953  25.1214
 22.7758  25.1003
 22.8563  25.3428
 22.9367  25.8123
 22.9943  26.3078