File: test-data-xrd/xrd-map-34-ID-E/Data_0064.chi
F:\20151113_APS_34IDE\\Brian\Particle1\OCV\Data_0064.tif
2-Theta Angle (Degrees)
Intensity
       2000
 0.07475  0.0000000E+00
 0.15525  0.0000000E+00
 0.23575  0.0000000E+00
 0.31625  0.0000000E+00
 0.39675  0.0000000E+00
 0.47725  0.0000000E+00
 0.55775  0.0000000E+00
 0.63825  0.0000000E+00
 0.71875  0.0000000E+00
 0.79925  0.0000000E+00
 0.87975  0.0000000E+00
 0.96025  0.0000000E+00
 1.04075  0.0000000E+00
 1.12125  0.0000000E+00
 1.20175  0.0000000E+00
 1.28225  0.0000000E+00
 1.36275  0.0000000E+00
 1.44325  0.0000000E+00
 1.52375  0.0000000E+00
 1.60425  0.0000000E+00
 1.68475  0.0000000E+00
 1.76525  0.0000000E+00
 1.84575  0.0000000E+00
 1.92625  0.0000000E+00
 2.00675  0.0000000E+00
 2.08725  0.0000000E+00
 2.16775  0.0000000E+00
 2.24825  0.0000000E+00
 2.32875  0.0000000E+00
 2.40925  0.0000000E+00
 2.48975  0.0000000E+00
 2.57025  0.0000000E+00
 2.65075  0.0000000E+00
 2.73125  0.0000000E+00
 2.81175  0.0000000E+00
 2.89225  36.1241
 2.97275  35.1709
 3.05325  36.0207
 3.13375  35.2966
 3.21425  34.3128
 3.29475  33.768
 3.37525  33.2251
 3.45575  33.5693
 3.53625  33.4724
 3.61675  32.9771
 3.69725  32.6223
 3.77775  32.9088
 3.85825  31.9073
 3.93875  31.8606
 4.01925  32.3457
 4.09975  31.4872
 4.18025  31.611
 4.26075  31.8238
 4.34125  31.7843
 4.42175  32.5267
 4.50225  32.1682
 4.58275  31.543
 4.66325  32.2704
 4.74375  31.855
 4.82425  32.0027
 4.90475  32.2114
 4.98525  32.3637
 5.06575  32.4729
 5.14625  33.1907
 5.22675  33.4467
 5.30725  33.4455
 5.38775  33.6962
 5.46825  34.1223
 5.54875  34.2556
 5.62925  34.3548
 5.70975  34.6671
 5.79025  34.8461
 5.87075  35.69
 5.95125  40.381
 6.03175  40.6972
 6.11225  36.1111
 6.19275  36.4295
 6.27325  36.8754
 6.35375  37.2106
 6.43425  37.4761
 6.51475  38.2882
 6.59525  39.0393
 6.67575  39.543
 6.75625  39.9939
 6.83675  40.5829
 6.91725  40.9388
 6.99775  41.3335
 7.07825  41.8481
 7.15875  42.2484
 7.23925  43.014
 7.31975  42.9458
 7.40025  43.3484
 7.48075  43.6675
 7.56125  43.7489
 7.64175  43.399
 7.72225  43.3067
 7.80275  43.5518
 7.88325  43.1936
 7.96375  43.0609
 8.04425  42.5502
 8.12475  42.0045
 8.20525  41.3064
 8.28575  40.4366
 8.36625  39.3511
 8.44675  37.9363
 8.52725  37.0529
 8.60775  35.5309
 8.68825  34.3921
 8.76875  33.2758
 8.84925  32.406
 8.92975  31.2126
 9.01025  30.2985
 9.09075  29.3051
 9.17125  28.5425
 9.25175  27.8494
 9.33225  27.0897
 9.41275  26.6149
 9.49325  26.0111
 9.57375  25.4713
 9.65425  25.2775
 9.73475  24.8204
 9.81525  24.4383
 9.89575  24.2161
 9.97625  24.0119
 10.0567  23.6852
 10.1373  23.7907
 10.2178  23.3015
 10.2982  23.307
 10.3788  23.1277
 10.4593  22.9797
 10.5397  23.0775
 10.6203  22.7118
 10.7007  22.5509
 10.7813  22.4423
 10.8618  22.471
 10.9422  22.4701
 11.0228  22.4404
 11.1033  22.576
 11.1837  22.284
 11.2643  22.1587
 11.3447  22.3207
 11.4253  22.5724
 11.5058  23.0119
 11.5862  30.4797
 11.6668  24.1682
 11.7473  22.2964
 11.8277  22.2521
 11.9083  22.3869
 11.9887  24.0191
 12.0693  23.3236
 12.1498  23.1143
 12.2302  22.2879
 12.3108  22.2075
 12.3913  22.179
 12.4718  22.5282
 12.5523  22.3556
 12.6328  22.4967
 12.7133  22.6389
 12.7938  22.7392
 12.8742  23.0904
 12.9548  23.4393
 13.0353  23.9815
 13.1158  24.4372
 13.1963  25.1814
 13.2768  26.4659
 13.3573  27.3509
 13.4378  28.105
 13.5183  28.882
 13.5988  29.3048
 13.6793  29.3423
 13.7598  29.0796
 13.8403  28.7883
 13.9208  32.97
 14.0013  30.2957
 14.0818  27.4056
 14.1623  26.7697
 14.2428  26.1124
 14.3233  25.9392
 14.4038  25.7011
 14.4843  25.1875
 14.5648  25.2247
 14.6453  25.0296
 14.7258  25.014
 14.8063  24.8839
 14.8868  24.6172
 14.9673  24.4758
 15.0478  24.5367
 15.1283  24.8862
 15.2088  27.2281
 15.2892  24.5653
 15.3698  24.4232
 15.4503  24.2014
 15.5308  24.1667
 15.6113  24.1463
 15.6918  24.24
 15.7723  24.2237
 15.8528  24.2244
 15.9332  24.2572
 16.0138  24.4426
 16.0943  24.4784
 16.1748  24.4842
 16.2553  24.958
 16.3358  24.4623
 16.4163  24.3852
 16.4967  24.3491
 16.5773  24.2421
 16.6578  24.1003
 16.7383  24.1983
 16.8188  24.1177
 16.8992  24.1465
 16.9798  23.8857
 17.0603  24.0184
 17.1408  23.9434
 17.2213  23.9707
 17.3017  23.8765
 17.3823  23.8514
 17.4628  23.633
 17.5433  23.6216
 17.6238  23.6025
 17.7042  23.5078
 17.7847  23.5725
 17.8653  23.5146
 17.9458  23.5987
 18.0263  24.2053
 18.1068  25.6471
 18.1872  24.0172
 18.2678  23.4487
 18.3483  23.4493
 18.4288  23.3835
 18.5093  23.1445
 18.5897  23.2962
 18.6703  23.1541
 18.7508  23.0912
 18.8313  23.1878
 18.9118  23.1974
 18.9922  23.0918
 19.0727  23.3383
 19.1533  23.217
 19.2338  23.1758
 19.3143  23.2043
 19.3948  23.2825
 19.4752  23.3393
 19.5558  23.4747
 19.6363  23.9366
 19.7168  25.7386
 19.7973  24.9999
 19.8777  25.4052
 19.9582  23.7323
 20.0388  23.5292
 20.1193  23.4376
 20.1998  23.4663
 20.2803  23.4788
 20.3607  23.6312
 20.4413  23.6263
 20.5218  23.4921
 20.6023  23.7499
 20.6828  24.1522
 20.7632  25.886
 20.8438  23.9992
 20.9243  23.7157
 21.0048  23.5719
 21.0853  23.6097
 21.1658  23.5508
 21.2462  23.6629
 21.3268  23.6445
 21.4073  23.6415
 21.4878  23.6995
 21.5683  23.7473
 21.6487  23.7487
 21.7293  23.8033
 21.8098  23.8845
 21.8903  23.8911
 21.9708  23.9194
 22.0512  24.1032
 22.1318  24.0526
 22.2123  24.0672
 22.2928  24.1771
 22.3733  24.1582
 22.4538  24.4539
 22.5343  24.5074
 22.6148  24.6802
 22.6953  24.7783
 22.7758  25.0166
 22.8563  25.2946
 22.9367  25.5978
 22.9943  26.0203