File: test-data-xrd/xrd-map-34-ID-E/Data_0103.chi
F:\20151113_APS_34IDE\\Brian\Particle1\OCV\Data_0103.tif
2-Theta Angle (Degrees)
Intensity
       2000
 0.07475  0.0000000E+00
 0.15525  0.0000000E+00
 0.23575  0.0000000E+00
 0.31625  0.0000000E+00
 0.39675  0.0000000E+00
 0.47725  0.0000000E+00
 0.55775  0.0000000E+00
 0.63825  0.0000000E+00
 0.71875  0.0000000E+00
 0.79925  0.0000000E+00
 0.87975  0.0000000E+00
 0.96025  0.0000000E+00
 1.04075  0.0000000E+00
 1.12125  0.0000000E+00
 1.20175  0.0000000E+00
 1.28225  0.0000000E+00
 1.36275  0.0000000E+00
 1.44325  0.0000000E+00
 1.52375  0.0000000E+00
 1.60425  0.0000000E+00
 1.68475  0.0000000E+00
 1.76525  0.0000000E+00
 1.84575  0.0000000E+00
 1.92625  0.0000000E+00
 2.00675  0.0000000E+00
 2.08725  0.0000000E+00
 2.16775  0.0000000E+00
 2.24825  0.0000000E+00
 2.32875  0.0000000E+00
 2.40925  0.0000000E+00
 2.48975  0.0000000E+00
 2.57025  0.0000000E+00
 2.65075  0.0000000E+00
 2.73125  0.0000000E+00
 2.81175  0.0000000E+00
 2.89225  34.8466
 2.97275  34.4771
 3.05325  35.4531
 3.13375  35.7767
 3.21425  35.4051
 3.29475  34.1507
 3.37525  34.5314
 3.45575  34.5111
 3.53625  34.0037
 3.61675  33.224
 3.69725  33.3575
 3.77775  32.959
 3.85825  33.1628
 3.93875  32.8933
 4.01925  33.2354
 4.09975  32.2884
 4.18025  32.2082
 4.26075  31.9636
 4.34125  32.3655
 4.42175  32.7003
 4.50225  32.9785
 4.58275  32.8143
 4.66325  33.4029
 4.74375  32.9394
 4.82425  32.8712
 4.90475  33.346
 4.98525  33.0025
 5.06575  33.1486
 5.14625  33.761
 5.22675  34.035
 5.30725  34.418
 5.38775  34.4579
 5.46825  35.2251
 5.54875  35.0173
 5.62925  35.6849
 5.70975  36.0549
 5.79025  36.3595
 5.87075  37.8129
 5.95125  53.1754
 6.03175  68.0211
 6.11225  38.2141
 6.19275  37.9788
 6.27325  37.9426
 6.35375  38.4009
 6.43425  38.7471
 6.51475  39.4663
 6.59525  39.6277
 6.67575  40.3263
 6.75625  40.8546
 6.83675  41.5655
 6.91725  42.1752
 6.99775  42.7054
 7.07825  42.7401
 7.15875  43.4664
 7.23925  43.8833
 7.31975  43.9212
 7.40025  44.0656
 7.48075  44.3431
 7.56125  44.618
 7.64175  44.4926
 7.72225  44.2684
 7.80275  44.475
 7.88325  43.9064
 7.96375  43.6999
 8.04425  43.4277
 8.12475  42.7248
 8.20525  42.1746
 8.28575  40.9366
 8.36625  39.8694
 8.44675  38.6845
 8.52725  37.8089
 8.60775  36.2113
 8.68825  35.1545
 8.76875  33.8876
 8.84925  32.779
 8.92975  31.4466
 9.01025  30.5478
 9.09075  29.642
 9.17125  28.8687
 9.25175  28.0411
 9.33225  27.6344
 9.41275  27.0224
 9.49325  26.4014
 9.57375  25.9059
 9.65425  25.4735
 9.73475  25.0249
 9.81525  24.8396
 9.89575  24.4428
 9.97625  24.2101
 10.0567  24.1678
 10.1373  23.7721
 10.2178  23.9159
 10.2982  23.6722
 10.3788  23.4571
 10.4593  23.1289
 10.5397  23.1742
 10.6203  22.8471
 10.7007  22.9289
 10.7813  22.978
 10.8618  22.724
 10.9422  22.6851
 11.0228  22.5731
 11.1033  22.4642
 11.1837  22.5804
 11.2643  22.5274
 11.3447  22.5064
 11.4253  22.7463
 11.5058  23.0869
 11.5862  29.9528
 11.6668  23.9742
 11.7473  22.514
 11.8277  22.7408
 11.9083  22.7206
 11.9887  23.6784
 12.0693  25.3577
 12.1498  27.7841
 12.2302  22.6823
 12.3108  22.7175
 12.3913  22.4838
 12.4718  22.6225
 12.5523  22.8321
 12.6328  23.0361
 12.7133  22.9453
 12.7938  23.2049
 12.8742  23.369
 12.9548  23.709
 13.0353  24.0447
 13.1158  24.9276
 13.1963  25.8141
 13.2768  26.6962
 13.3573  27.6646
 13.4378  28.6827
 13.5183  29.4369
 13.5988  29.806
 13.6793  29.7505
 13.7598  29.6912
 13.8403  29.2699
 13.9208  33.668
 14.0013  32.1372
 14.0818  27.7238
 14.1623  27.1179
 14.2428  26.7403
 14.3233  26.1405
 14.4038  26.1263
 14.4843  25.5529
 14.5648  25.6112
 14.6453  25.3077
 14.7258  25.1672
 14.8063  25.0323
 14.8868  24.758
 14.9673  24.8573
 15.0478  24.8404
 15.1283  25.1007
 15.2088  26.7225
 15.2892  24.8265
 15.3698  24.5583
 15.4503  24.5359
 15.5308  24.6496
 15.6113  24.5543
 15.6918  24.618
 15.7723  24.7643
 15.8528  24.6321
 15.9332  24.7284
 16.0138  24.6857
 16.0943  24.7937
 16.1748  24.8891
 16.2553  26.6971
 16.3358  25.116
 16.4163  24.8062
 16.4967  24.7173
 16.5773  24.5921
 16.6578  24.6573
 16.7383  24.5727
 16.8188  24.4166
 16.8992  24.4722
 16.9798  24.2819
 17.0603  24.1984
 17.1408  24.3391
 17.2213  24.1936
 17.3017  24.1286
 17.3823  24.0738
 17.4628  23.9926
 17.5433  23.9932
 17.6238  23.8497
 17.7042  23.8293
 17.7847  23.7873
 17.8653  23.7715
 17.9458  23.8622
 18.0263  24.8404
 18.1068  27.7077
 18.1872  24.4523
 18.2678  23.9213
 18.3483  23.6856
 18.4288  23.7046
 18.5093  23.56
 18.5897  23.803
 18.6703  23.6196
 18.7508  23.4603
 18.8313  23.5113
 18.9118  23.4996
 18.9922  23.4445
 19.0727  23.6254
 19.1533  23.6482
 19.2338  23.6329
 19.3143  23.6783
 19.3948  23.7424
 19.4752  23.7371
 19.5558  23.9035
 19.6363  24.5154
 19.7168  28.1546
 19.7973  25.8632
 19.8777  33.1313
 19.9582  24.7825
 20.0388  23.9743
 20.1193  23.8892
 20.1998  23.727
 20.2803  23.7922
 20.3607  23.7381
 20.4413  23.7824
 20.5218  23.6625
 20.6023  24.0243
 20.6828  24.4285
 20.7632  27.0019
 20.8438  24.3625
 20.9243  23.9512
 21.0048  23.9926
 21.0853  23.9338
 21.1658  23.9273
 21.2462  23.8643
 21.3268  24.0319
 21.4073  24.1147
 21.4878  23.9394
 21.5683  24.0028
 21.6487  24.1741
 21.7293  24.1058
 21.8098  24.3075
 21.8903  24.2477
 21.9708  24.2033
 22.0512  24.2608
 22.1318  24.3145
 22.2123  24.3917
 22.2928  24.4765
 22.3733  24.6518
 22.4538  24.6423
 22.5343  24.8394
 22.6148  24.9719
 22.6953  25.1492
 22.7758  25.3317
 22.8563  25.5618
 22.9367  26.0369
 22.9943  26.518