File: test-data-xrd/xrd-map-34-ID-E/Data_0032.chi
F:\20151113_APS_34IDE\\Brian\Particle1\OCV\Data_0032.tif
2-Theta Angle (Degrees)
Intensity
       2000
 0.07475  0.0000000E+00
 0.15525  0.0000000E+00
 0.23575  0.0000000E+00
 0.31625  0.0000000E+00
 0.39675  0.0000000E+00
 0.47725  0.0000000E+00
 0.55775  0.0000000E+00
 0.63825  0.0000000E+00
 0.71875  0.0000000E+00
 0.79925  0.0000000E+00
 0.87975  0.0000000E+00
 0.96025  0.0000000E+00
 1.04075  0.0000000E+00
 1.12125  0.0000000E+00
 1.20175  0.0000000E+00
 1.28225  0.0000000E+00
 1.36275  0.0000000E+00
 1.44325  0.0000000E+00
 1.52375  0.0000000E+00
 1.60425  0.0000000E+00
 1.68475  0.0000000E+00
 1.76525  0.0000000E+00
 1.84575  0.0000000E+00
 1.92625  0.0000000E+00
 2.00675  0.0000000E+00
 2.08725  0.0000000E+00
 2.16775  0.0000000E+00
 2.24825  0.0000000E+00
 2.32875  0.0000000E+00
 2.40925  0.0000000E+00
 2.48975  0.0000000E+00
 2.57025  0.0000000E+00
 2.65075  0.0000000E+00
 2.73125  0.0000000E+00
 2.81175  0.0000000E+00
 2.89225  35.6091
 2.97275  36.1549
 3.05325  36.819
 3.13375  35.8928
 3.21425  35.7486
 3.29475  35.8883
 3.37525  35.2483
 3.45575  34.7746
 3.53625  33.3803
 3.61675  33.0815
 3.69725  33.3418
 3.77775  33.3672
 3.85825  33.1432
 3.93875  32.9083
 4.01925  32.7116
 4.09975  32.9171
 4.18025  32.5443
 4.26075  32.8927
 4.34125  32.7194
 4.42175  32.6374
 4.50225  33.0235
 4.58275  33.8029
 4.66325  33.4801
 4.74375  33.2613
 4.82425  33.047
 4.90475  33.1546
 4.98525  33.3823
 5.06575  33.7055
 5.14625  34.1939
 5.22675  34.567
 5.30725  34.7371
 5.38775  35.2686
 5.46825  35.0462
 5.54875  35.1616
 5.62925  35.7272
 5.70975  35.8996
 5.79025  35.9339
 5.87075  36.2565
 5.95125  38.6791
 6.03175  38.0412
 6.11225  37.3208
 6.19275  37.168
 6.27325  37.8111
 6.35375  38.2283
 6.43425  38.8161
 6.51475  39.7166
 6.59525  39.7832
 6.67575  40.7105
 6.75625  41.1316
 6.83675  41.8911
 6.91725  42.4973
 6.99775  42.6335
 7.07825  43.2658
 7.15875  43.9422
 7.23925  44.1979
 7.31975  44.3041
 7.40025  44.8459
 7.48075  44.7512
 7.56125  44.6842
 7.64175  44.849
 7.72225  44.7107
 7.80275  44.9446
 7.88325  44.4286
 7.96375  44.5014
 8.04425  44.0717
 8.12475  43.1653
 8.20525  42.0918
 8.28575  41.3822
 8.36625  40.5158
 8.44675  39.2078
 8.52725  38.1243
 8.60775  36.8168
 8.68825  35.7072
 8.76875  34.2751
 8.84925  33.2591
 8.92975  32.0187
 9.01025  30.9854
 9.09075  30.1897
 9.17125  29.2717
 9.25175  28.3253
 9.33225  27.81
 9.41275  27.1832
 9.49325  26.5634
 9.57375  26.0182
 9.65425  25.7132
 9.73475  25.4174
 9.81525  25.027
 9.89575  24.7432
 9.97625  24.4974
 10.0567  24.2351
 10.1373  23.992
 10.2178  23.8208
 10.2982  23.6959
 10.3788  23.5883
 10.4593  23.4587
 10.5397  23.2837
 10.6203  23.134
 10.7007  23.0589
 10.7813  23.0922
 10.8618  22.8441
 10.9422  22.7684
 11.0228  22.718
 11.1033  22.6437
 11.1837  22.6696
 11.2643  22.704
 11.3447  22.5557
 11.4253  22.8486
 11.5058  22.7244
 11.5862  24.638
 11.6668  23.0093
 11.7473  22.5461
 11.8277  22.4368
 11.9083  22.7177
 11.9887  23.1241
 12.0693  23.3928
 12.1498  23.811
 12.2302  22.571
 12.3108  22.7182
 12.3913  22.6842
 12.4718  22.8009
 12.5523  22.8929
 12.6328  23.0157
 12.7133  22.9062
 12.7938  23.2026
 12.8742  23.5963
 12.9548  23.9786
 13.0353  24.3365
 13.1158  24.9822
 13.1963  25.6345
 13.2768  26.7088
 13.3573  27.9326
 13.4378  28.8991
 13.5183  29.6162
 13.5988  29.8925
 13.6793  29.6875
 13.7598  29.4441
 13.8403  29.1217
 13.9208  29.4118
 14.0013  28.7194
 14.0818  27.4476
 14.1623  27.1836
 14.2428  26.6869
 14.3233  26.2435
 14.4038  26.2012
 14.4843  25.7892
 14.5648  25.5948
 14.6453  25.4551
 14.7258  25.2581
 14.8063  25.2023
 14.8868  25.0267
 14.9673  25.1427
 15.0478  24.8794
 15.1283  25.0792
 15.2088  26.551
 15.2892  25.0693
 15.3698  24.7227
 15.4503  24.6466
 15.5308  24.5664
 15.6113  24.6741
 15.6918  24.7604
 15.7723  24.7005
 15.8528  24.6153
 15.9332  24.9457
 16.0138  24.7976
 16.0943  24.8635
 16.1748  24.9262
 16.2553  25.2053
 16.3358  24.9541
 16.4163  24.7614
 16.4967  24.7296
 16.5773  24.6615
 16.6578  24.5437
 16.7383  24.498
 16.8188  24.5582
 16.8992  24.6225
 16.9798  24.4011
 17.0603  24.264
 17.1408  24.2554
 17.2213  24.1561
 17.3017  24.1998
 17.3823  24.1515
 17.4628  24.0966
 17.5433  24.0266
 17.6238  24.0648
 17.7042  23.9836
 17.7847  23.9961
 17.8653  23.9135
 17.9458  23.8101
 18.0263  24.2675
 18.1068  24.3312
 18.1872  23.7517
 18.2678  23.5771
 18.3483  23.581
 18.4288  23.6313
 18.5093  23.6907
 18.5897  23.5242
 18.6703  23.4887
 18.7508  23.6168
 18.8313  23.4027
 18.9118  23.3653
 18.9922  23.5509
 19.0727  23.6789
 19.1533  23.6314
 19.2338  23.5469
 19.3143  23.6885
 19.3948  23.6697
 19.4752  23.7111
 19.5558  23.6357
 19.6363  23.839
 19.7168  24.5684
 19.7973  24.0683
 19.8777  24.3348
 19.9582  23.743
 20.0388  23.7963
 20.1193  23.685
 20.1998  23.77
 20.2803  23.7969
 20.3607  23.8461
 20.4413  23.8521
 20.5218  23.7831
 20.6023  24.0178
 20.6828  24.0195
 20.7632  26.626
 20.8438  24.5988
 20.9243  24.166
 21.0048  23.9609
 21.0853  23.9525
 21.1658  23.8558
 21.2462  23.9532
 21.3268  23.9082
 21.4073  23.9055
 21.4878  24.0474
 21.5683  24.0871
 21.6487  24.1125
 21.7293  24.2126
 21.8098  24.2255
 21.8903  24.3983
 21.9708  24.2786
 22.0512  24.3381
 22.1318  24.4432
 22.2123  24.408
 22.2928  24.6381
 22.3733  24.5646
 22.4538  24.7531
 22.5343  24.7587
 22.6148  25.0332
 22.6953  25.2301
 22.7758  25.3274
 22.8563  25.5683
 22.9367  25.9704
 22.9943  26.1624