File: test-data-xrd/xrd-map-34-ID-E/Data_0077.chi
F:\20151113_APS_34IDE\\Brian\Particle1\OCV\Data_0077.tif
2-Theta Angle (Degrees)
Intensity
       2000
 0.07475  0.0000000E+00
 0.15525  0.0000000E+00
 0.23575  0.0000000E+00
 0.31625  0.0000000E+00
 0.39675  0.0000000E+00
 0.47725  0.0000000E+00
 0.55775  0.0000000E+00
 0.63825  0.0000000E+00
 0.71875  0.0000000E+00
 0.79925  0.0000000E+00
 0.87975  0.0000000E+00
 0.96025  0.0000000E+00
 1.04075  0.0000000E+00
 1.12125  0.0000000E+00
 1.20175  0.0000000E+00
 1.28225  0.0000000E+00
 1.36275  0.0000000E+00
 1.44325  0.0000000E+00
 1.52375  0.0000000E+00
 1.60425  0.0000000E+00
 1.68475  0.0000000E+00
 1.76525  0.0000000E+00
 1.84575  0.0000000E+00
 1.92625  0.0000000E+00
 2.00675  0.0000000E+00
 2.08725  0.0000000E+00
 2.16775  0.0000000E+00
 2.24825  0.0000000E+00
 2.32875  0.0000000E+00
 2.40925  0.0000000E+00
 2.48975  0.0000000E+00
 2.57025  0.0000000E+00
 2.65075  0.0000000E+00
 2.73125  0.0000000E+00
 2.81175  0.0000000E+00
 2.89225  35.947
 2.97275  36.1142
 3.05325  35.7466
 3.13375  34.9851
 3.21425  34.8608
 3.29475  33.7175
 3.37525  35.2554
 3.45575  34.5117
 3.53625  33.3055
 3.61675  33.2409
 3.69725  32.6835
 3.77775  33.1474
 3.85825  32.7183
 3.93875  32.5473
 4.01925  32.4727
 4.09975  32.6831
 4.18025  32.1374
 4.26075  32.2454
 4.34125  32.1044
 4.42175  32.0661
 4.50225  32.6489
 4.58275  33.0195
 4.66325  32.7065
 4.74375  32.5735
 4.82425  32.5089
 4.90475  32.4542
 4.98525  33.0052
 5.06575  33.0453
 5.14625  33.6741
 5.22675  33.9825
 5.30725  34.0797
 5.38775  34.7152
 5.46825  34.6575
 5.54875  34.878
 5.62925  34.8785
 5.70975  35.3041
 5.79025  35.6967
 5.87075  35.7413
 5.95125  38.8428
 6.03175  38.9072
 6.11225  36.6257
 6.19275  37.0045
 6.27325  37.5619
 6.35375  38.2812
 6.43425  38.6222
 6.51475  39.0862
 6.59525  39.825
 6.67575  40.2922
 6.75625  40.6702
 6.83675  41.324
 6.91725  41.789
 6.99775  42.3198
 7.07825  42.6131
 7.15875  43.3532
 7.23925  43.9699
 7.31975  43.9113
 7.40025  44.1061
 7.48075  44.1423
 7.56125  44.4127
 7.64175  44.3886
 7.72225  44.489
 7.80275  44.4716
 7.88325  43.7474
 7.96375  43.6567
 8.04425  43.3118
 8.12475  42.8865
 8.20525  42.2062
 8.28575  41.1095
 8.36625  40.3634
 8.44675  38.7004
 8.52725  37.7442
 8.60775  36.3497
 8.68825  35.2144
 8.76875  33.9262
 8.84925  32.8015
 8.92975  31.9099
 9.01025  30.7008
 9.09075  29.7503
 9.17125  29.0702
 9.25175  28.0991
 9.33225  27.4252
 9.41275  27.0054
 9.49325  26.421
 9.57375  25.9318
 9.65425  25.58
 9.73475  25.0457
 9.81525  24.8243
 9.89575  24.3353
 9.97625  24.2618
 10.0567  24.0531
 10.1373  23.7666
 10.2178  23.6984
 10.2982  23.4782
 10.3788  23.0999
 10.4593  23.0559
 10.5397  23.0941
 10.6203  22.8507
 10.7007  22.8576
 10.7813  22.7673
 10.8618  22.7038
 10.9422  22.6706
 11.0228  22.5153
 11.1033  22.5945
 11.1837  22.3983
 11.2643  22.3692
 11.3447  22.2164
 11.4253  22.577
 11.5058  22.3457
 11.5862  24.0665
 11.6668  22.4745
 11.7473  22.305
 11.8277  22.2181
 11.9083  22.3508
 11.9887  22.373
 12.0693  22.4934
 12.1498  22.5721
 12.2302  22.3019
 12.3108  22.6506
 12.3913  22.4485
 12.4718  22.5655
 12.5523  22.7326
 12.6328  22.8406
 12.7133  22.8069
 12.7938  23.0058
 12.8742  23.2487
 12.9548  23.5389
 13.0353  23.9369
 13.1158  24.8538
 13.1963  25.505
 13.2768  26.7151
 13.3573  27.6794
 13.4378  28.4674
 13.5183  29.3039
 13.5988  29.658
 13.6793  29.6685
 13.7598  29.0062
 13.8403  29.1089
 13.9208  34.2531
 14.0013  31.5343
 14.0818  27.4613
 14.1623  26.9451
 14.2428  26.4368
 14.3233  26.1924
 14.4038  25.7907
 14.4843  25.5101
 14.5648  25.3884
 14.6453  25.2323
 14.7258  25.0971
 14.8063  24.9173
 14.8868  24.6114
 14.9673  24.6891
 15.0478  24.7688
 15.1283  24.6162
 15.2088  25.2935
 15.2892  24.6115
 15.3698  24.3708
 15.4503  24.298
 15.5308  24.4212
 15.6113  24.3836
 15.6918  24.3185
 15.7723  24.5041
 15.8528  24.3962
 15.9332  24.4981
 16.0138  24.4926
 16.0943  24.6204
 16.1748  24.618
 16.2553  24.9702
 16.3358  24.749
 16.4163  24.6389
 16.4967  24.5993
 16.5773  24.5604
 16.6578  24.363
 16.7383  24.3239
 16.8188  24.2691
 16.8992  24.2327
 16.9798  24.1058
 17.0603  23.8927
 17.1408  23.9678
 17.2213  24.0221
 17.3017  23.8797
 17.3823  23.8944
 17.4628  23.8723
 17.5433  23.8529
 17.6238  23.6598
 17.7042  23.6826
 17.7847  23.6358
 17.8653  23.5945
 17.9458  23.611
 18.0263  23.8183
 18.1068  24.6213
 18.1872  23.6148
 18.2678  23.4274
 18.3483  23.2951
 18.4288  23.3978
 18.5093  23.3772
 18.5897  23.3987
 18.6703  23.3294
 18.7508  23.3823
 18.8313  23.3406
 18.9118  23.3599
 18.9922  23.3313
 19.0727  23.4256
 19.1533  23.4021
 19.2338  23.1673
 19.3143  23.3716
 19.3948  23.4768
 19.4752  23.3472
 19.5558  23.4313
 19.6363  23.4996
 19.7168  24.2076
 19.7973  23.8933
 19.8777  24.4223
 19.9582  23.5628
 20.0388  23.5067
 20.1193  23.34
 20.1998  23.4373
 20.2803  23.3737
 20.3607  23.3469
 20.4413  23.4914
 20.5218  23.3423
 20.6023  23.622
 20.6828  23.6725
 20.7632  24.2664
 20.8438  23.8145
 20.9243  23.8329
 21.0048  23.688
 21.0853  23.6348
 21.1658  23.6515
 21.2462  23.7492
 21.3268  23.6842
 21.4073  23.739
 21.4878  23.806
 21.5683  23.8023
 21.6487  23.864
 21.7293  23.9695
 21.8098  24.0391
 21.8903  24.0523
 21.9708  24.0042
 22.0512  24.2336
 22.1318  24.2404
 22.2123  24.2008
 22.2928  24.2522
 22.3733  24.4195
 22.4538  24.4943
 22.5343  24.6277
 22.6148  24.5749
 22.6953  24.9201
 22.7758  25.1368
 22.8563  25.3185
 22.9367  25.7883
 22.9943  26.1429