File: test-data-xrd/xrd-map-34-ID-E/Data_0016.chi
F:\20151113_APS_34IDE\\Brian\Particle1\OCV\Data_0016.tif
2-Theta Angle (Degrees)
Intensity
       2000
 0.07475  0.0000000E+00
 0.15525  0.0000000E+00
 0.23575  0.0000000E+00
 0.31625  0.0000000E+00
 0.39675  0.0000000E+00
 0.47725  0.0000000E+00
 0.55775  0.0000000E+00
 0.63825  0.0000000E+00
 0.71875  0.0000000E+00
 0.79925  0.0000000E+00
 0.87975  0.0000000E+00
 0.96025  0.0000000E+00
 1.04075  0.0000000E+00
 1.12125  0.0000000E+00
 1.20175  0.0000000E+00
 1.28225  0.0000000E+00
 1.36275  0.0000000E+00
 1.44325  0.0000000E+00
 1.52375  0.0000000E+00
 1.60425  0.0000000E+00
 1.68475  0.0000000E+00
 1.76525  0.0000000E+00
 1.84575  0.0000000E+00
 1.92625  0.0000000E+00
 2.00675  0.0000000E+00
 2.08725  0.0000000E+00
 2.16775  0.0000000E+00
 2.24825  0.0000000E+00
 2.32875  0.0000000E+00
 2.40925  0.0000000E+00
 2.48975  0.0000000E+00
 2.57025  0.0000000E+00
 2.65075  0.0000000E+00
 2.73125  0.0000000E+00
 2.81175  0.0000000E+00
 2.89225  34.6635
 2.97275  36.7036
 3.05325  35.7493
 3.13375  35.442
 3.21425  34.7911
 3.29475  35.1952
 3.37525  34.3525
 3.45575  34.4477
 3.53625  34.5685
 3.61675  33.9879
 3.69725  33.3234
 3.77775  33.0164
 3.85825  32.7279
 3.93875  32.737
 4.01925  32.9194
 4.09975  32.8762
 4.18025  32.818
 4.26075  32.5885
 4.34125  32.6513
 4.42175  32.6096
 4.50225  32.4962
 4.58275  32.5372
 4.66325  32.6275
 4.74375  32.5692
 4.82425  32.6763
 4.90475  32.9505
 4.98525  33.2576
 5.06575  33.6273
 5.14625  33.924
 5.22675  33.9829
 5.30725  34.3823
 5.38775  35.0359
 5.46825  34.9568
 5.54875  35.0443
 5.62925  35.2782
 5.70975  35.2941
 5.79025  35.5137
 5.87075  36.4645
 5.95125  42.8285
 6.03175  43.8722
 6.11225  37.3498
 6.19275  37.3255
 6.27325  37.5495
 6.35375  38.2376
 6.43425  38.6168
 6.51475  38.9667
 6.59525  39.6781
 6.67575  40.3258
 6.75625  41.0638
 6.83675  41.5875
 6.91725  41.9186
 6.99775  42.3625
 7.07825  43.0711
 7.15875  43.4205
 7.23925  43.6636
 7.31975  44.0704
 7.40025  44.4387
 7.48075  44.603
 7.56125  44.3601
 7.64175  44.5182
 7.72225  44.7533
 7.80275  44.3559
 7.88325  44.2448
 7.96375  44.104
 8.04425  43.5115
 8.12475  43.1803
 8.20525  42.3621
 8.28575  41.2704
 8.36625  40.6463
 8.44675  39.1978
 8.52725  38.0849
 8.60775  36.5743
 8.68825  35.4394
 8.76875  34.1622
 8.84925  33.417
 8.92975  32.2784
 9.01025  30.872
 9.09075  30.2399
 9.17125  29.4278
 9.25175  28.6381
 9.33225  28.0379
 9.41275  27.5744
 9.49325  27.0175
 9.57375  26.4772
 9.65425  26.0398
 9.73475  25.6857
 9.81525  25.3243
 9.89575  25.0462
 9.97625  24.9954
 10.0567  24.6122
 10.1373  24.5023
 10.2178  24.3057
 10.2982  23.9397
 10.3788  23.7954
 10.4593  23.6614
 10.5397  23.435
 10.6203  23.3702
 10.7007  23.1766
 10.7813  23.0579
 10.8618  23.1002
 10.9422  23.1537
 11.0228  22.8685
 11.1033  22.8845
 11.1837  22.8768
 11.2643  22.7851
 11.3447  22.9537
 11.4253  23.322
 11.5058  24.104
 11.5862  43.2682
 11.6668  25.1116
 11.7473  23.1244
 11.8277  22.8996
 11.9083  23.0701
 11.9887  24.4946
 12.0693  25.1833
 12.1498  24.5153
 12.2302  22.8942
 12.3108  22.9391
 12.3913  22.7816
 12.4718  22.925
 12.5523  23.0964
 12.6328  23.0156
 12.7133  23.3486
 12.7938  23.3699
 12.8742  23.6327
 12.9548  23.979
 13.0353  24.3683
 13.1158  25.0959
 13.1963  25.9893
 13.2768  27.1317
 13.3573  28.0733
 13.4378  28.9929
 13.5183  29.5206
 13.5988  30.0656
 13.6793  29.9668
 13.7598  29.6775
 13.8403  29.5398
 13.9208  33.2355
 14.0013  32.3486
 14.0818  28.1554
 14.1623  27.525
 14.2428  26.8405
 14.3233  26.4961
 14.4038  26.3309
 14.4843  25.9713
 14.5648  25.7484
 14.6453  25.7237
 14.7258  25.4581
 14.8063  25.3659
 14.8868  25.1762
 14.9673  25.0734
 15.0478  25.1128
 15.1283  25.3301
 15.2088  26.9157
 15.2892  25.1597
 15.3698  25.0293
 15.4503  24.6039
 15.5308  24.9556
 15.6113  24.9196
 15.6918  24.9359
 15.7723  24.9084
 15.8528  24.8827
 15.9332  24.9251
 16.0138  24.9384
 16.0943  24.9671
 16.1748  25.145
 16.2553  26.3274
 16.3358  25.3503
 16.4163  25.0349
 16.4967  24.8945
 16.5773  24.7981
 16.6578  24.7696
 16.7383  24.7843
 16.8188  24.7156
 16.8992  24.5497
 16.9798  24.6024
 17.0603  24.4515
 17.1408  24.3623
 17.2213  24.3814
 17.3017  24.3437
 17.3823  24.2229
 17.4628  24.3173
 17.5433  24.126
 17.6238  24.0017
 17.7042  24.0863
 17.7847  24.02
 17.8653  23.9698
 17.9458  24.1943
 18.0263  24.723
 18.1068  26.2257
 18.1872  24.245
 18.2678  23.9403
 18.3483  23.9397
 18.4288  23.9205
 18.5093  23.8068
 18.5897  23.8676
 18.6703  23.7623
 18.7508  23.6122
 18.8313  23.7514
 18.9118  23.7873
 18.9922  23.6452
 19.0727  23.9322
 19.1533  23.84
 19.2338  23.7399
 19.3143  23.8825
 19.3948  23.9678
 19.4752  23.9222
 19.5558  24.0566
 19.6363  24.6848
 19.7168  28.7492
 19.7973  26.7073
 19.8777  29.05
 19.9582  24.5875
 20.0388  24.1147
 20.1193  24.2106
 20.1998  23.9923
 20.2803  24.0616
 20.3607  24.0004
 20.4413  24.0998
 20.5218  24.0153
 20.6023  24.2742
 20.6828  24.8491
 20.7632  28.522
 20.8438  24.7809
 20.9243  24.422
 21.0048  24.2819
 21.0853  24.1457
 21.1658  24.0662
 21.2462  24.1501
 21.3268  24.3458
 21.4073  24.2954
 21.4878  24.1843
 21.5683  24.2897
 21.6487  24.4664
 21.7293  24.4819
 21.8098  24.4819
 21.8903  24.3595
 21.9708  24.4846
 22.0512  24.6436
 22.1318  24.6503
 22.2123  24.6491
 22.2928  24.8033
 22.3733  24.822
 22.4538  24.787
 22.5343  25.0018
 22.6148  25.2212
 22.6953  25.3532
 22.7758  25.5192
 22.8563  25.7049
 22.9367  26.1784
 22.9943  26.5068