File: test-data-xrd/xrd-map-34-ID-E/Data_0013.chi
F:\20151113_APS_34IDE\\Brian\Particle1\OCV\Data_0013.tif
2-Theta Angle (Degrees)
Intensity
       2000
 0.07475  0.0000000E+00
 0.15525  0.0000000E+00
 0.23575  0.0000000E+00
 0.31625  0.0000000E+00
 0.39675  0.0000000E+00
 0.47725  0.0000000E+00
 0.55775  0.0000000E+00
 0.63825  0.0000000E+00
 0.71875  0.0000000E+00
 0.79925  0.0000000E+00
 0.87975  0.0000000E+00
 0.96025  0.0000000E+00
 1.04075  0.0000000E+00
 1.12125  0.0000000E+00
 1.20175  0.0000000E+00
 1.28225  0.0000000E+00
 1.36275  0.0000000E+00
 1.44325  0.0000000E+00
 1.52375  0.0000000E+00
 1.60425  0.0000000E+00
 1.68475  0.0000000E+00
 1.76525  0.0000000E+00
 1.84575  0.0000000E+00
 1.92625  0.0000000E+00
 2.00675  0.0000000E+00
 2.08725  0.0000000E+00
 2.16775  0.0000000E+00
 2.24825  0.0000000E+00
 2.32875  0.0000000E+00
 2.40925  0.0000000E+00
 2.48975  0.0000000E+00
 2.57025  0.0000000E+00
 2.65075  0.0000000E+00
 2.73125  0.0000000E+00
 2.81175  0.0000000E+00
 2.89225  35.1933
 2.97275  35.6089
 3.05325  36.3433
 3.13375  34.3404
 3.21425  35.0966
 3.29475  34.5688
 3.37525  35.0411
 3.45575  34.4191
 3.53625  34.2881
 3.61675  34.2728
 3.69725  33.3912
 3.77775  33.4508
 3.85825  33.2471
 3.93875  33.0756
 4.01925  32.6405
 4.09975  32.9006
 4.18025  32.6463
 4.26075  32.4357
 4.34125  32.5852
 4.42175  32.8662
 4.50225  32.8685
 4.58275  32.836
 4.66325  32.9921
 4.74375  32.7977
 4.82425  32.9957
 4.90475  33.2999
 4.98525  33.4405
 5.06575  33.7766
 5.14625  33.8789
 5.22675  33.8651
 5.30725  34.4626
 5.38775  34.7563
 5.46825  34.9317
 5.54875  34.931
 5.62925  35.5499
 5.70975  35.9974
 5.79025  36.3764
 5.87075  36.6003
 5.95125  41.1815
 6.03175  40.3309
 6.11225  37.2543
 6.19275  37.4439
 6.27325  38.1308
 6.35375  38.5493
 6.43425  38.9459
 6.51475  39.5561
 6.59525  39.9708
 6.67575  40.6002
 6.75625  41.1724
 6.83675  41.7998
 6.91725  42.57
 6.99775  42.5359
 7.07825  43.3785
 7.15875  43.6894
 7.23925  44.3278
 7.31975  44.4002
 7.40025  44.6659
 7.48075  44.8114
 7.56125  44.8125
 7.64175  44.9782
 7.72225  45.1881
 7.80275  45.0983
 7.88325  44.5947
 7.96375  44.316
 8.04425  43.8838
 8.12475  43.5735
 8.20525  42.5952
 8.28575  41.8489
 8.36625  40.8302
 8.44675  39.6811
 8.52725  38.4885
 8.60775  36.9812
 8.68825  35.899
 8.76875  34.5785
 8.84925  33.5891
 8.92975  32.5314
 9.01025  31.4056
 9.09075  30.4757
 9.17125  29.7471
 9.25175  28.8743
 9.33225  28.3314
 9.41275  27.6491
 9.49325  27.1338
 9.57375  26.543
 9.65425  26.2551
 9.73475  26.1009
 9.81525  25.5126
 9.89575  25.2894
 9.97625  24.9657
 10.0567  24.8634
 10.1373  24.6349
 10.2178  24.1782
 10.2982  24.0901
 10.3788  23.823
 10.4593  23.7643
 10.5397  23.5912
 10.6203  23.4433
 10.7007  23.4953
 10.7813  23.2088
 10.8618  23.2105
 10.9422  23.0127
 11.0228  22.9383
 11.1033  22.9996
 11.1837  22.7539
 11.2643  22.7358
 11.3447  22.7941
 11.4253  23.1614
 11.5058  23.4288
 11.5862  28.1566
 11.6668  23.7803
 11.7473  22.9011
 11.8277  22.8316
 11.9083  22.8016
 11.9887  23.4698
 12.0693  23.9668
 12.1498  23.5409
 12.2302  22.8903
 12.3108  22.8357
 12.3913  22.8122
 12.4718  22.8871
 12.5523  23.145
 12.6328  23.3007
 12.7133  23.2911
 12.7938  23.2906
 12.8742  23.8201
 12.9548  24.0997
 13.0353  24.4664
 13.1158  25.2215
 13.1963  25.9483
 13.2768  27.0656
 13.3573  27.9925
 13.4378  28.8352
 13.5183  29.6706
 13.5988  30.2408
 13.6793  30.245
 13.7598  29.7437
 13.8403  29.518
 13.9208  33.8505
 14.0013  32.2977
 14.0818  28.2612
 14.1623  27.4152
 14.2428  26.8792
 14.3233  26.6639
 14.4038  26.3471
 14.4843  26.0708
 14.5648  25.846
 14.6453  25.6845
 14.7258  25.6749
 14.8063  25.3559
 14.8868  25.4191
 14.9673  25.1097
 15.0478  25.186
 15.1283  25.2574
 15.2088  25.8835
 15.2892  24.941
 15.3698  25.0346
 15.4503  24.9002
 15.5308  24.8432
 15.6113  24.9931
 15.6918  24.966
 15.7723  24.8997
 15.8528  24.8073
 15.9332  24.8151
 16.0138  24.9665
 16.0943  25.0069
 16.1748  25.4678
 16.2553  29.0953
 16.3358  25.55
 16.4163  25.0878
 16.4967  25.0195
 16.5773  25.018
 16.6578  24.8428
 16.7383  24.9939
 16.8188  24.729
 16.8992  24.6422
 16.9798  24.5652
 17.0603  24.49
 17.1408  24.469
 17.2213  24.5388
 17.3017  24.4602
 17.3823  24.2111
 17.4628  24.2673
 17.5433  24.2455
 17.6238  24.1558
 17.7042  24.1789
 17.7847  24.0145
 17.8653  24.0535
 17.9458  24.1341
 18.0263  24.2753
 18.1068  24.8067
 18.1872  23.9959
 18.2678  23.8622
 18.3483  24.0449
 18.4288  24.0514
 18.5093  23.8063
 18.5897  23.8407
 18.6703  23.8857
 18.7508  23.9219
 18.8313  23.7565
 18.9118  23.8484
 18.9922  23.6666
 19.0727  23.8669
 19.1533  23.8664
 19.2338  23.6903
 19.3143  23.7237
 19.3948  23.9684
 19.4752  23.886
 19.5558  24.0468
 19.6363  24.1901
 19.7168  25.0427
 19.7973  24.8136
 19.8777  25.1903
 19.9582  24.2017
 20.0388  24.0277
 20.1193  24.0793
 20.1998  24.0272
 20.2803  23.9942
 20.3607  24.0393
 20.4413  24.1042
 20.5218  24.003
 20.6023  24.1191
 20.6828  24.4843
 20.7632  25.1832
 20.8438  24.2613
 20.9243  24.2931
 21.0048  24.224
 21.0853  24.1142
 21.1658  24.1309
 21.2462  24.1748
 21.3268  24.2018
 21.4073  24.0961
 21.4878  24.3531
 21.5683  24.2894
 21.6487  24.3912
 21.7293  24.432
 21.8098  24.5198
 21.8903  24.4354
 21.9708  24.5124
 22.0512  24.4668
 22.1318  24.6273
 22.2123  24.5819
 22.2928  24.6532
 22.3733  24.8613
 22.4538  24.9564
 22.5343  25.0127
 22.6148  25.1527
 22.6953  25.3354
 22.7758  25.4452
 22.8563  25.7185
 22.9367  26.1322
 22.9943  26.7035