File: test-data-xrd/xrd-map-34-ID-E/Data_0022.chi
F:\20151113_APS_34IDE\\Brian\Particle1\OCV\Data_0022.tif
2-Theta Angle (Degrees)
Intensity
       2000
 0.07475  0.0000000E+00
 0.15525  0.0000000E+00
 0.23575  0.0000000E+00
 0.31625  0.0000000E+00
 0.39675  0.0000000E+00
 0.47725  0.0000000E+00
 0.55775  0.0000000E+00
 0.63825  0.0000000E+00
 0.71875  0.0000000E+00
 0.79925  0.0000000E+00
 0.87975  0.0000000E+00
 0.96025  0.0000000E+00
 1.04075  0.0000000E+00
 1.12125  0.0000000E+00
 1.20175  0.0000000E+00
 1.28225  0.0000000E+00
 1.36275  0.0000000E+00
 1.44325  0.0000000E+00
 1.52375  0.0000000E+00
 1.60425  0.0000000E+00
 1.68475  0.0000000E+00
 1.76525  0.0000000E+00
 1.84575  0.0000000E+00
 1.92625  0.0000000E+00
 2.00675  0.0000000E+00
 2.08725  0.0000000E+00
 2.16775  0.0000000E+00
 2.24825  0.0000000E+00
 2.32875  0.0000000E+00
 2.40925  0.0000000E+00
 2.48975  0.0000000E+00
 2.57025  0.0000000E+00
 2.65075  0.0000000E+00
 2.73125  0.0000000E+00
 2.81175  0.0000000E+00
 2.89225  35.09
 2.97275  35.8461
 3.05325  35.3267
 3.13375  36.2397
 3.21425  36.2377
 3.29475  35.5851
 3.37525  36.2416
 3.45575  34.7825
 3.53625  34.2484
 3.61675  33.1742
 3.69725  33.2547
 3.77775  33.1534
 3.85825  33.1965
 3.93875  32.8949
 4.01925  33.4407
 4.09975  32.5272
 4.18025  31.8953
 4.26075  32.4183
 4.34125  32.2986
 4.42175  32.414
 4.50225  32.9184
 4.58275  32.8599
 4.66325  32.9156
 4.74375  33.2277
 4.82425  32.6289
 4.90475  32.9992
 4.98525  33.1202
 5.06575  33.6706
 5.14625  34.8781
 5.22675  34.1655
 5.30725  34.3278
 5.38775  34.962
 5.46825  35.1725
 5.54875  34.9812
 5.62925  35.4151
 5.70975  35.3669
 5.79025  35.9841
 5.87075  36.6362
 5.95125  42.1988
 6.03175  49.0579
 6.11225  37.636
 6.19275  37.3963
 6.27325  37.9883
 6.35375  38.6657
 6.43425  38.9045
 6.51475  39.3587
 6.59525  39.6576
 6.67575  40.751
 6.75625  41.0703
 6.83675  41.7847
 6.91725  42.3053
 6.99775  42.3764
 7.07825  43.0747
 7.15875  43.6702
 7.23925  43.9511
 7.31975  44.0824
 7.40025  44.4128
 7.48075  44.6952
 7.56125  44.504
 7.64175  44.7677
 7.72225  44.6915
 7.80275  44.5944
 7.88325  44.4688
 7.96375  44.272
 8.04425  43.9366
 8.12475  43.433
 8.20525  42.2896
 8.28575  41.314
 8.36625  40.4442
 8.44675  39.3722
 8.52725  38.0305
 8.60775  36.5832
 8.68825  35.5889
 8.76875  34.2047
 8.84925  33.2187
 8.92975  32.1564
 9.01025  31.0571
 9.09075  30.1759
 9.17125  29.1727
 9.25175  28.6081
 9.33225  27.67
 9.41275  27.1193
 9.49325  26.832
 9.57375  26.047
 9.65425  25.5942
 9.73475  25.4124
 9.81525  25.0235
 9.89575  24.794
 9.97625  24.5376
 10.0567  24.198
 10.1373  24.1422
 10.2178  23.9668
 10.2982  23.862
 10.3788  23.4765
 10.4593  23.3782
 10.5397  23.2849
 10.6203  23.2007
 10.7007  23.2419
 10.7813  22.9654
 10.8618  22.8961
 10.9422  22.9089
 11.0228  22.688
 11.1033  22.7931
 11.1837  22.6395
 11.2643  22.5418
 11.3447  22.8323
 11.4253  22.8851
 11.5058  22.5971
 11.5862  24.9824
 11.6668  22.8541
 11.7473  22.457
 11.8277  22.4326
 11.9083  22.4219
 11.9887  22.6352
 12.0693  23.1421
 12.1498  23.3484
 12.2302  22.4848
 12.3108  22.494
 12.3913  22.6181
 12.4718  22.5655
 12.5523  22.9679
 12.6328  22.7517
 12.7133  22.8387
 12.7938  23.0682
 12.8742  23.306
 12.9548  23.6047
 13.0353  24.0479
 13.1158  24.8664
 13.1963  25.5862
 13.2768  26.6135
 13.3573  27.6388
 13.4378  28.4227
 13.5183  29.4604
 13.5988  29.852
 13.6793  29.7293
 13.7598  29.3827
 13.8403  29.0179
 13.9208  28.9281
 14.0013  28.3138
 14.0818  27.3697
 14.1623  27.0373
 14.2428  26.6333
 14.3233  26.1483
 14.4038  25.9394
 14.4843  25.6342
 14.5648  25.445
 14.6453  25.4544
 14.7258  25.2012
 14.8063  25.1596
 14.8868  24.8218
 14.9673  24.7906
 15.0478  24.9539
 15.1283  24.8566
 15.2088  25.661
 15.2892  24.7796
 15.3698  24.659
 15.4503  24.4789
 15.5308  24.4334
 15.6113  24.4476
 15.6918  24.6003
 15.7723  24.7631
 15.8528  24.5904
 15.9332  24.7251
 16.0138  24.7787
 16.0943  24.6505
 16.1748  24.8098
 16.2553  25.1732
 16.3358  24.8485
 16.4163  24.7694
 16.4967  24.6881
 16.5773  24.6059
 16.6578  24.4593
 16.7383  24.6349
 16.8188  24.6348
 16.8992  24.3873
 16.9798  24.3181
 17.0603  24.2389
 17.1408  24.2066
 17.2213  24.2516
 17.3017  24.1485
 17.3823  24.0361
 17.4628  23.9236
 17.5433  23.927
 17.6238  23.9062
 17.7042  23.7637
 17.7847  23.8717
 17.8653  23.7397
 17.9458  23.8147
 18.0263  24.3981
 18.1068  24.7921
 18.1872  23.6955
 18.2678  23.5873
 18.3483  23.605
 18.4288  23.5786
 18.5093  23.6645
 18.5897  23.6418
 18.6703  23.6097
 18.7508  23.5016
 18.8313  23.4332
 18.9118  23.4066
 18.9922  23.4715
 19.0727  23.5308
 19.1533  23.5907
 19.2338  23.466
 19.3143  23.6088
 19.3948  23.6838
 19.4752  23.5692
 19.5558  23.6175
 19.6363  23.7106
 19.7168  24.7181
 19.7973  23.9436
 19.8777  24.1863
 19.9582  23.7077
 20.0388  23.6762
 20.1193  23.7301
 20.1998  23.539
 20.2803  23.6446
 20.3607  23.647
 20.4413  23.6823
 20.5218  23.6518
 20.6023  23.8056
 20.6828  23.8725
 20.7632  24.0935
 20.8438  23.7626
 20.9243  23.8662
 21.0048  23.7561
 21.0853  23.8624
 21.1658  23.6747
 21.2462  23.8516
 21.3268  23.8406
 21.4073  23.8364
 21.4878  23.9346
 21.5683  23.8737
 21.6487  23.9608
 21.7293  24.1096
 21.8098  24.1683
 21.8903  24.1121
 21.9708  24.0838
 22.0512  24.1865
 22.1318  24.313
 22.2123  24.2913
 22.2928  24.4369
 22.3733  24.4864
 22.4538  24.637
 22.5343  24.6114
 22.6148  24.8921
 22.6953  25.0545
 22.7758  25.2396
 22.8563  25.4971
 22.9367  25.912
 22.9943  26.14