File: test-data-xrd/xrd-map-34-ID-E/Data_0134.chi
F:\20151113_APS_34IDE\\Brian\Particle1\OCV\Data_0134.tif
2-Theta Angle (Degrees)
Intensity
       2000
 0.07475  0.0000000E+00
 0.15525  0.0000000E+00
 0.23575  0.0000000E+00
 0.31625  0.0000000E+00
 0.39675  0.0000000E+00
 0.47725  0.0000000E+00
 0.55775  0.0000000E+00
 0.63825  0.0000000E+00
 0.71875  0.0000000E+00
 0.79925  0.0000000E+00
 0.87975  0.0000000E+00
 0.96025  0.0000000E+00
 1.04075  0.0000000E+00
 1.12125  0.0000000E+00
 1.20175  0.0000000E+00
 1.28225  0.0000000E+00
 1.36275  0.0000000E+00
 1.44325  0.0000000E+00
 1.52375  0.0000000E+00
 1.60425  0.0000000E+00
 1.68475  0.0000000E+00
 1.76525  0.0000000E+00
 1.84575  0.0000000E+00
 1.92625  0.0000000E+00
 2.00675  0.0000000E+00
 2.08725  0.0000000E+00
 2.16775  0.0000000E+00
 2.24825  0.0000000E+00
 2.32875  0.0000000E+00
 2.40925  0.0000000E+00
 2.48975  0.0000000E+00
 2.57025  0.0000000E+00
 2.65075  0.0000000E+00
 2.73125  0.0000000E+00
 2.81175  0.0000000E+00
 2.89225  34.7234
 2.97275  36.0833
 3.05325  35.1954
 3.13375  33.9732
 3.21425  35.1797
 3.29475  35.1884
 3.37525  34.025
 3.45575  34.3873
 3.53625  33.8531
 3.61675  33.8225
 3.69725  33.5114
 3.77775  33.09
 3.85825  32.5718
 3.93875  32.3394
 4.01925  32.9791
 4.09975  32.2567
 4.18025  32.0906
 4.26075  32.2998
 4.34125  32.4311
 4.42175  32.4214
 4.50225  32.512
 4.58275  32.3328
 4.66325  33.0175
 4.74375  32.6587
 4.82425  32.2547
 4.90475  32.9633
 4.98525  32.95
 5.06575  33.3599
 5.14625  33.8
 5.22675  34.1025
 5.30725  33.8978
 5.38775  34.1737
 5.46825  34.1909
 5.54875  34.7882
 5.62925  34.7598
 5.70975  35.5819
 5.79025  35.2633
 5.87075  35.7727
 5.95125  37.4963
 6.03175  37.286
 6.11225  36.7868
 6.19275  36.7826
 6.27325  37.4526
 6.35375  38.056
 6.43425  38.704
 6.51475  38.9984
 6.59525  39.5122
 6.67575  40.113
 6.75625  40.6168
 6.83675  41.5182
 6.91725  41.7047
 6.99775  42.3063
 7.07825  42.7421
 7.15875  42.9556
 7.23925  43.4455
 7.31975  43.7908
 7.40025  43.9142
 7.48075  44.2736
 7.56125  44.3081
 7.64175  44.3439
 7.72225  44.2567
 7.80275  44.274
 7.88325  44.0789
 7.96375  43.4349
 8.04425  43.142
 8.12475  42.7798
 8.20525  42.1035
 8.28575  41.1993
 8.36625  40.2179
 8.44675  38.7693
 8.52725  37.4191
 8.60775  36.254
 8.68825  35.2504
 8.76875  34.0832
 8.84925  32.8241
 8.92975  31.5064
 9.01025  30.7701
 9.09075  29.6287
 9.17125  28.9944
 9.25175  28.255
 9.33225  27.541
 9.41275  26.9042
 9.49325  26.4479
 9.57375  25.8819
 9.65425  25.5393
 9.73475  25.2701
 9.81525  24.7949
 9.89575  24.432
 9.97625  24.188
 10.0567  23.9369
 10.1373  23.782
 10.2178  23.7144
 10.2982  23.5967
 10.3788  23.3217
 10.4593  23.1466
 10.5397  23.0538
 10.6203  23.0029
 10.7007  22.9136
 10.7813  22.7178
 10.8618  22.6883
 10.9422  22.5109
 11.0228  22.3714
 11.1033  22.2748
 11.1837  22.2429
 11.2643  22.374
 11.3447  22.254
 11.4253  22.4743
 11.5058  22.2528
 11.5862  23.2542
 11.6668  22.4998
 11.7473  22.3598
 11.8277  22.3462
 11.9083  22.3254
 11.9887  22.6179
 12.0693  22.6102
 12.1498  22.5873
 12.2302  22.4232
 12.3108  22.274
 12.3913  22.225
 12.4718  22.5088
 12.5523  22.6086
 12.6328  22.6877
 12.7133  22.8109
 12.7938  22.9083
 12.8742  23.2556
 12.9548  23.5771
 13.0353  23.9346
 13.1158  24.8851
 13.1963  25.6216
 13.2768  26.353
 13.3573  27.5162
 13.4378  28.3237
 13.5183  29.1754
 13.5988  29.4114
 13.6793  29.5697
 13.7598  29.2439
 13.8403  28.8128
 13.9208  29.3065
 14.0013  29.0206
 14.0818  27.381
 14.1623  26.7319
 14.2428  26.295
 14.3233  26.0763
 14.4038  25.624
 14.4843  25.4369
 14.5648  25.2298
 14.6453  25.1272
 14.7258  24.8738
 14.8063  24.8287
 14.8868  24.7219
 14.9673  24.6642
 15.0478  24.6486
 15.1283  24.5424
 15.2088  24.7093
 15.2892  24.4142
 15.3698  24.3611
 15.4503  24.2563
 15.5308  24.3812
 15.6113  24.3956
 15.6918  24.3808
 15.7723  24.3934
 15.8528  24.3946
 15.9332  24.4887
 16.0138  24.4931
 16.0943  24.5307
 16.1748  24.7841
 16.2553  29.0196
 16.3358  24.9028
 16.4163  24.8009
 16.4967  24.5487
 16.5773  24.4461
 16.6578  24.3151
 16.7383  24.2348
 16.8188  24.1957
 16.8992  24.2816
 16.9798  24.1593
 17.0603  25.0093
 17.1408  24.0583
 17.2213  23.9603
 17.3017  24.0269
 17.3823  23.8566
 17.4628  23.7467
 17.5433  23.6281
 17.6238  23.7992
 17.7042  23.6313
 17.7847  23.5665
 17.8653  23.4791
 17.9458  23.4964
 18.0263  23.608
 18.1068  23.8705
 18.1872  23.3161
 18.2678  23.4038
 18.3483  23.4304
 18.4288  23.3657
 18.5093  23.5203
 18.5897  23.2972
 18.6703  23.2505
 18.7508  23.2158
 18.8313  23.3018
 18.9118  23.3063
 18.9922  23.2735
 19.0727  23.2694
 19.1533  23.2749
 19.2338  23.2262
 19.3143  23.3324
 19.3948  23.3852
 19.4752  23.2556
 19.5558  23.948
 19.6363  23.5626
 19.7168  23.8964
 19.7973  23.8059
 19.8777  24.2723
 19.9582  23.4817
 20.0388  23.5215
 20.1193  23.6168
 20.1998  23.3605
 20.2803  23.3791
 20.3607  23.3878
 20.4413  23.5944
 20.5218  23.5166
 20.6023  23.4745
 20.6828  23.592
 20.7632  24.0783
 20.8438  23.7229
 20.9243  23.5772
 21.0048  23.563
 21.0853  23.6798
 21.1658  23.5265
 21.2462  23.6517
 21.3268  23.6253
 21.4073  23.7067
 21.4878  23.7749
 21.5683  23.7898
 21.6487  23.9079
 21.7293  23.8492
 21.8098  23.955
 21.8903  24.0589
 21.9708  24.0326
 22.0512  24.0108
 22.1318  24.1715
 22.2123  24.1399
 22.2928  24.2914
 22.3733  24.3575
 22.4538  24.438
 22.5343  24.5417
 22.6148  24.6924
 22.6953  24.9634
 22.7758  25.072
 22.8563  25.2347
 22.9367  25.6908
 22.9943  26.0478