File: test-data-xrd/xrd-map-34-ID-E/Data_0140.chi
F:\20151113_APS_34IDE\\Brian\Particle1\OCV\Data_0140.tif
2-Theta Angle (Degrees)
Intensity
       2000
 0.07475  0.0000000E+00
 0.15525  0.0000000E+00
 0.23575  0.0000000E+00
 0.31625  0.0000000E+00
 0.39675  0.0000000E+00
 0.47725  0.0000000E+00
 0.55775  0.0000000E+00
 0.63825  0.0000000E+00
 0.71875  0.0000000E+00
 0.79925  0.0000000E+00
 0.87975  0.0000000E+00
 0.96025  0.0000000E+00
 1.04075  0.0000000E+00
 1.12125  0.0000000E+00
 1.20175  0.0000000E+00
 1.28225  0.0000000E+00
 1.36275  0.0000000E+00
 1.44325  0.0000000E+00
 1.52375  0.0000000E+00
 1.60425  0.0000000E+00
 1.68475  0.0000000E+00
 1.76525  0.0000000E+00
 1.84575  0.0000000E+00
 1.92625  0.0000000E+00
 2.00675  0.0000000E+00
 2.08725  0.0000000E+00
 2.16775  0.0000000E+00
 2.24825  0.0000000E+00
 2.32875  0.0000000E+00
 2.40925  0.0000000E+00
 2.48975  0.0000000E+00
 2.57025  0.0000000E+00
 2.65075  0.0000000E+00
 2.73125  0.0000000E+00
 2.81175  0.0000000E+00
 2.89225  35.4104
 2.97275  36.2699
 3.05325  35.3984
 3.13375  35.3063
 3.21425  35.3546
 3.29475  34.532
 3.37525  34.0703
 3.45575  33.6125
 3.53625  33.7114
 3.61675  32.9968
 3.69725  33.1654
 3.77775  32.9457
 3.85825  31.9735
 3.93875  31.4953
 4.01925  32.4391
 4.09975  32.1761
 4.18025  32.0448
 4.26075  32.218
 4.34125  31.6591
 4.42175  32.7151
 4.50225  32.1989
 4.58275  32.4477
 4.66325  33.0317
 4.74375  32.0196
 4.82425  32.0629
 4.90475  32.3843
 4.98525  32.8411
 5.06575  32.9965
 5.14625  33.2355
 5.22675  33.7233
 5.30725  33.9244
 5.38775  34.3743
 5.46825  34.1114
 5.54875  34.4451
 5.62925  34.9066
 5.70975  35.0917
 5.79025  35.5185
 5.87075  35.7952
 5.95125  36.7501
 6.03175  37.0018
 6.11225  36.2956
 6.19275  36.517
 6.27325  37.5558
 6.35375  37.7929
 6.43425  38.3818
 6.51475  39.0981
 6.59525  39.5478
 6.67575  39.9268
 6.75625  40.6553
 6.83675  41.2403
 6.91725  41.6683
 6.99775  42.1444
 7.07825  42.5866
 7.15875  42.9025
 7.23925  43.6169
 7.31975  43.4385
 7.40025  43.8162
 7.48075  44.0904
 7.56125  44.0697
 7.64175  43.9695
 7.72225  43.7897
 7.80275  43.9915
 7.88325  43.8446
 7.96375  43.4665
 8.04425  43.3389
 8.12475  42.5122
 8.20525  41.9631
 8.28575  40.8683
 8.36625  39.9904
 8.44675  38.5487
 8.52725  37.3624
 8.60775  36.1163
 8.68825  35.2671
 8.76875  33.9636
 8.84925  32.7535
 8.92975  31.5015
 9.01025  30.4143
 9.09075  29.5576
 9.17125  28.6116
 9.25175  27.9621
 9.33225  27.1433
 9.41275  26.9287
 9.49325  26.2105
 9.57375  25.5831
 9.65425  25.1842
 9.73475  24.9278
 9.81525  24.7363
 9.89575  24.2678
 9.97625  24.1069
 10.0567  23.923
 10.1373  23.6926
 10.2178  23.6763
 10.2982  23.1888
 10.3788  23.1888
 10.4593  23.0493
 10.5397  22.7272
 10.6203  22.607
 10.7007  22.6406
 10.7813  22.4576
 10.8618  22.4013
 10.9422  22.3243
 11.0228  22.3987
 11.1033  22.1778
 11.1837  22.1906
 11.2643  22.0031
 11.3447  22.0048
 11.4253  22.2276
 11.5058  22.019
 11.5862  22.7989
 11.6668  22.0769
 11.7473  21.9755
 11.8277  22.0763
 11.9083  22.1142
 11.9887  22.3414
 12.0693  22.3587
 12.1498  22.2561
 12.2302  22.0754
 12.3108  22.2062
 12.3913  22.1196
 12.4718  22.2401
 12.5523  22.1847
 12.6328  22.469
 12.7133  22.5972
 12.7938  22.6256
 12.8742  23.0501
 12.9548  23.3969
 13.0353  23.8337
 13.1158  24.4504
 13.1963  25.2426
 13.2768  26.2571
 13.3573  27.3994
 13.4378  28.191
 13.5183  29.0148
 13.5988  29.3686
 13.6793  29.3727
 13.7598  28.8756
 13.8403  28.6644
 13.9208  29.1896
 14.0013  29.0159
 14.0818  26.9943
 14.1623  26.526
 14.2428  26.2084
 14.3233  25.8928
 14.4038  25.7439
 14.4843  25.3737
 14.5648  25.2285
 14.6453  24.9059
 14.7258  24.7672
 14.8063  24.5316
 14.8868  24.5434
 14.9673  24.3919
 15.0478  24.4172
 15.1283  24.3177
 15.2088  24.3597
 15.2892  24.1557
 15.3698  24.1037
 15.4503  24.195
 15.5308  24.2781
 15.6113  24.2121
 15.6918  24.1962
 15.7723  24.2618
 15.8528  24.1368
 15.9332  24.2085
 16.0138  24.2736
 16.0943  24.4166
 16.1748  24.503
 16.2553  25.79
 16.3358  24.6152
 16.4163  24.3284
 16.4967  24.2546
 16.5773  24.2905
 16.6578  24.256
 16.7383  24.1223
 16.8188  24.0594
 16.8992  24.0438
 16.9798  24.0641
 17.0603  23.8646
 17.1408  23.735
 17.2213  23.6744
 17.3017  23.6518
 17.3823  23.7091
 17.4628  23.5922
 17.5433  23.4294
 17.6238  23.5471
 17.7042  23.5297
 17.7847  23.3929
 17.8653  23.1867
 17.9458  23.3372
 18.0263  23.4252
 18.1068  23.4834
 18.1872  23.1884
 18.2678  23.1432
 18.3483  23.1482
 18.4288  23.0785
 18.5093  23.1145
 18.5897  23.0546
 18.6703  23.0926
 18.7508  23.1529
 18.8313  23.1273
 18.9118  23.1234
 18.9922  22.9522
 19.0727  23.1856
 19.1533  23.1098
 19.2338  23.0346
 19.3143  23.1151
 19.3948  23.1284
 19.4752  23.2112
 19.5558  23.2139
 19.6363  23.1537
 19.7168  23.6231
 19.7973  23.4346
 19.8777  23.6978
 19.9582  23.1877
 20.0388  23.1905
 20.1193  23.1448
 20.1998  23.197
 20.2803  23.2369
 20.3607  23.2587
 20.4413  23.3616
 20.5218  23.2658
 20.6023  23.3416
 20.6828  23.4224
 20.7632  23.8039
 20.8438  23.3961
 20.9243  23.4708
 21.0048  23.4313
 21.0853  23.5049
 21.1658  23.4059
 21.2462  23.5592
 21.3268  23.4852
 21.4073  23.4146
 21.4878  23.6921
 21.5683  23.4763
 21.6487  23.628
 21.7293  23.6813
 21.8098  23.7442
 21.8903  23.6857
 21.9708  23.7569
 22.0512  23.862
 22.1318  23.8418
 22.2123  23.8855
 22.2928  23.9796
 22.3733  24.0199
 22.4538  24.2035
 22.5343  24.3279
 22.6148  24.4527
 22.6953  25.0433
 22.7758  24.8183
 22.8563  25.0065
 22.9367  25.6183
 22.9943  25.6757