File: test-data-xrd/xrd-map-34-ID-E/Data_0047.chi
F:\20151113_APS_34IDE\\Brian\Particle1\OCV\Data_0047.tif
2-Theta Angle (Degrees)
Intensity
       2000
 0.07475  0.0000000E+00
 0.15525  0.0000000E+00
 0.23575  0.0000000E+00
 0.31625  0.0000000E+00
 0.39675  0.0000000E+00
 0.47725  0.0000000E+00
 0.55775  0.0000000E+00
 0.63825  0.0000000E+00
 0.71875  0.0000000E+00
 0.79925  0.0000000E+00
 0.87975  0.0000000E+00
 0.96025  0.0000000E+00
 1.04075  0.0000000E+00
 1.12125  0.0000000E+00
 1.20175  0.0000000E+00
 1.28225  0.0000000E+00
 1.36275  0.0000000E+00
 1.44325  0.0000000E+00
 1.52375  0.0000000E+00
 1.60425  0.0000000E+00
 1.68475  0.0000000E+00
 1.76525  0.0000000E+00
 1.84575  0.0000000E+00
 1.92625  0.0000000E+00
 2.00675  0.0000000E+00
 2.08725  0.0000000E+00
 2.16775  0.0000000E+00
 2.24825  0.0000000E+00
 2.32875  0.0000000E+00
 2.40925  0.0000000E+00
 2.48975  0.0000000E+00
 2.57025  0.0000000E+00
 2.65075  0.0000000E+00
 2.73125  0.0000000E+00
 2.81175  0.0000000E+00
 2.89225  34.812
 2.97275  36.0109
 3.05325  35.3735
 3.13375  35.0294
 3.21425  33.9576
 3.29475  34.626
 3.37525  35.6163
 3.45575  33.9954
 3.53625  33.1423
 3.61675  32.9569
 3.69725  33.0859
 3.77775  32.9594
 3.85825  32.7118
 3.93875  32.1979
 4.01925  32.2184
 4.09975  32.4502
 4.18025  32.0804
 4.26075  32.0685
 4.34125  32.1811
 4.42175  32.6735
 4.50225  32.3884
 4.58275  32.4182
 4.66325  32.7302
 4.74375  33.0361
 4.82425  32.4836
 4.90475  32.6197
 4.98525  33.0046
 5.06575  33.4064
 5.14625  33.782
 5.22675  33.5559
 5.30725  34.1508
 5.38775  34.5808
 5.46825  34.6676
 5.54875  34.9172
 5.62925  35.424
 5.70975  35.8192
 5.79025  35.7726
 5.87075  37.3267
 5.95125  62.2123
 6.03175  58.3884
 6.11225  37.9748
 6.19275  37.4487
 6.27325  37.5827
 6.35375  37.8342
 6.43425  38.4471
 6.51475  39.2689
 6.59525  39.7363
 6.67575  39.9261
 6.75625  40.6611
 6.83675  41.1918
 6.91725  41.8402
 6.99775  42.1581
 7.07825  42.6476
 7.15875  43.0907
 7.23925  43.374
 7.31975  43.6767
 7.40025  43.6471
 7.48075  44.0852
 7.56125  44.3
 7.64175  44.0759
 7.72225  44.1356
 7.80275  44.1918
 7.88325  43.6999
 7.96375  43.3248
 8.04425  42.9535
 8.12475  42.686
 8.20525  41.7661
 8.28575  40.5437
 8.36625  39.7855
 8.44675  38.5741
 8.52725  37.2351
 8.60775  36.23
 8.68825  35.2465
 8.76875  33.8288
 8.84925  32.6638
 8.92975  31.4914
 9.01025  30.7323
 9.09075  29.9175
 9.17125  28.8894
 9.25175  28.2534
 9.33225  27.7269
 9.41275  26.9356
 9.49325  26.603
 9.57375  25.7864
 9.65425  25.4978
 9.73475  25.1679
 9.81525  24.9315
 9.89575  24.4506
 9.97625  24.2198
 10.0567  24.087
 10.1373  23.9132
 10.2178  23.8814
 10.2982  23.7287
 10.3788  23.5593
 10.4593  23.3377
 10.5397  23.2606
 10.6203  23.1594
 10.7007  23.0894
 10.7813  22.8613
 10.8618  22.7672
 10.9422  22.7312
 11.0228  22.6109
 11.1033  22.5807
 11.1837  22.7133
 11.2643  22.44
 11.3447  22.6353
 11.4253  23.0305
 11.5058  23.3407
 11.5862  28.9723
 11.6668  23.7662
 11.7473  22.6888
 11.8277  22.6119
 11.9083  22.5548
 11.9887  23.7794
 12.0693  24.2536
 12.1498  23.9312
 12.2302  22.6323
 12.3108  22.6132
 12.3913  22.8204
 12.4718  22.7876
 12.5523  22.8034
 12.6328  22.8278
 12.7133  23.06
 12.7938  23.2369
 12.8742  23.3024
 12.9548  23.8942
 13.0353  24.2536
 13.1158  24.8753
 13.1963  25.7458
 13.2768  26.8033
 13.3573  27.7338
 13.4378  28.5277
 13.5183  29.5902
 13.5988  29.9221
 13.6793  29.8764
 13.7598  29.6339
 13.8403  29.8226
 13.9208  37.3856
 14.0013  36.7608
 14.0818  28.2211
 14.1623  27.4799
 14.2428  26.7604
 14.3233  26.3042
 14.4038  26.0423
 14.4843  25.7737
 14.5648  25.6898
 14.6453  25.423
 14.7258  25.3471
 14.8063  25.2518
 14.8868  25.0361
 14.9673  25.0674
 15.0478  25.1591
 15.1283  26.1211
 15.2088  30.783
 15.2892  25.2476
 15.3698  24.7567
 15.4503  24.7119
 15.5308  24.6473
 15.6113  24.7361
 15.6918  24.648
 15.7723  24.7114
 15.8528  24.7628
 15.9332  24.7955
 16.0138  24.8403
 16.0943  24.8866
 16.1748  25.0624
 16.2553  26.9706
 16.3358  25.2037
 16.4163  24.974
 16.4967  24.8687
 16.5773  24.7692
 16.6578  24.7063
 16.7383  24.6745
 16.8188  24.661
 16.8992  24.5161
 16.9798  24.3665
 17.0603  24.342
 17.1408  24.5132
 17.2213  24.4135
 17.3017  24.3923
 17.3823  24.3068
 17.4628  24.1725
 17.5433  24.1257
 17.6238  23.9957
 17.7042  23.9639
 17.7847  24.0022
 17.8653  24.0074
 17.9458  24.0089
 18.0263  25.2986
 18.1068  27.4262
 18.1872  24.6848
 18.2678  24.0378
 18.3483  23.7606
 18.4288  23.8103
 18.5093  23.7513
 18.5897  23.7356
 18.6703  23.5737
 18.7508  23.6505
 18.8313  23.7434
 18.9118  23.6698
 18.9922  23.685
 19.0727  23.8492
 19.1533  23.6494
 19.2338  23.6929
 19.3143  23.7413
 19.3948  23.9655
 19.4752  23.9098
 19.5558  23.9987
 19.6363  24.61
 19.7168  28.3768
 19.7973  27.5212
 19.8777  35.4937
 19.9582  25.0498
 20.0388  24.3664
 20.1193  24.0643
 20.1998  23.9955
 20.2803  23.9035
 20.3607  24.0115
 20.4413  23.9159
 20.5218  23.8675
 20.6023  24.1715
 20.6828  24.5324
 20.7632  27.8081
 20.8438  24.7989
 20.9243  24.2768
 21.0048  24.0094
 21.0853  24.0777
 21.1658  23.9963
 21.2462  24.0106
 21.3268  24.0759
 21.4073  24.0265
 21.4878  24.0786
 21.5683  24.2226
 21.6487  24.2447
 21.7293  24.3196
 21.8098  24.1766
 21.8903  24.3416
 21.9708  24.4674
 22.0512  24.5282
 22.1318  24.5002
 22.2123  24.4292
 22.2928  24.5791
 22.3733  24.718
 22.4538  24.8254
 22.5343  25.0377
 22.6148  25.1161
 22.6953  25.3606
 22.7758  25.4908
 22.8563  25.825
 22.9367  26.2391
 22.9943  26.7664