File: test-data-xrd/xrd-map-34-ID-E/Data_0014.chi
F:\20151113_APS_34IDE\\Brian\Particle1\OCV\Data_0014.tif
2-Theta Angle (Degrees)
Intensity
       2000
 0.07475  0.0000000E+00
 0.15525  0.0000000E+00
 0.23575  0.0000000E+00
 0.31625  0.0000000E+00
 0.39675  0.0000000E+00
 0.47725  0.0000000E+00
 0.55775  0.0000000E+00
 0.63825  0.0000000E+00
 0.71875  0.0000000E+00
 0.79925  0.0000000E+00
 0.87975  0.0000000E+00
 0.96025  0.0000000E+00
 1.04075  0.0000000E+00
 1.12125  0.0000000E+00
 1.20175  0.0000000E+00
 1.28225  0.0000000E+00
 1.36275  0.0000000E+00
 1.44325  0.0000000E+00
 1.52375  0.0000000E+00
 1.60425  0.0000000E+00
 1.68475  0.0000000E+00
 1.76525  0.0000000E+00
 1.84575  0.0000000E+00
 1.92625  0.0000000E+00
 2.00675  0.0000000E+00
 2.08725  0.0000000E+00
 2.16775  0.0000000E+00
 2.24825  0.0000000E+00
 2.32875  0.0000000E+00
 2.40925  0.0000000E+00
 2.48975  0.0000000E+00
 2.57025  0.0000000E+00
 2.65075  0.0000000E+00
 2.73125  0.0000000E+00
 2.81175  0.0000000E+00
 2.89225  34.8879
 2.97275  34.7402
 3.05325  35.4114
 3.13375  34.5888
 3.21425  35.5637
 3.29475  34.5018
 3.37525  34.7018
 3.45575  33.591
 3.53625  33.5764
 3.61675  32.8195
 3.69725  33.331
 3.77775  32.1991
 3.85825  32.1363
 3.93875  32.0048
 4.01925  32.5284
 4.09975  32.4944
 4.18025  32.3822
 4.26075  32.1326
 4.34125  32.0371
 4.42175  32.1018
 4.50225  32.1458
 4.58275  32.6232
 4.66325  32.7506
 4.74375  32.4888
 4.82425  32.2709
 4.90475  32.8485
 4.98525  32.9272
 5.06575  33.4271
 5.14625  33.6139
 5.22675  33.5443
 5.30725  34.0847
 5.38775  34.4348
 5.46825  34.5925
 5.54875  34.6522
 5.62925  35.0097
 5.70975  35.2946
 5.79025  35.592
 5.87075  36.069
 5.95125  40.9858
 6.03175  39.5927
 6.11225  37.1906
 6.19275  36.8591
 6.27325  37.6062
 6.35375  37.9911
 6.43425  38.3627
 6.51475  39.2001
 6.59525  39.6369
 6.67575  40.3451
 6.75625  40.8841
 6.83675  41.7434
 6.91725  42.049
 6.99775  42.81
 7.07825  43.1375
 7.15875  43.228
 7.23925  43.6393
 7.31975  43.9042
 7.40025  43.9564
 7.48075  44.5018
 7.56125  44.7249
 7.64175  45.1187
 7.72225  44.7913
 7.80275  44.7268
 7.88325  44.4739
 7.96375  44.1849
 8.04425  43.7796
 8.12475  43.233
 8.20525  42.6226
 8.28575  41.5815
 8.36625  40.6327
 8.44675  39.3549
 8.52725  38.2471
 8.60775  36.7574
 8.68825  35.6992
 8.76875  34.4315
 8.84925  33.5124
 8.92975  32.3717
 9.01025  31.5272
 9.09075  30.5724
 9.17125  29.7302
 9.25175  28.8955
 9.33225  28.1272
 9.41275  27.4585
 9.49325  27.0795
 9.57375  26.5873
 9.65425  26.297
 9.73475  25.8262
 9.81525  25.5178
 9.89575  25.1673
 9.97625  24.8482
 10.0567  24.4344
 10.1373  24.2051
 10.2178  24.2327
 10.2982  24.1922
 10.3788  23.8577
 10.4593  23.5652
 10.5397  23.5444
 10.6203  23.3237
 10.7007  23.2097
 10.7813  23.0864
 10.8618  23.1782
 10.9422  23.231
 11.0228  23.0272
 11.1033  22.8867
 11.1837  22.7656
 11.2643  22.7518
 11.3447  23.0129
 11.4253  23.285
 11.5058  23.6836
 11.5862  32.3627
 11.6668  24.5429
 11.7473  22.9523
 11.8277  22.8322
 11.9083  22.8003
 11.9887  24.1697
 12.0693  24.5406
 12.1498  23.4977
 12.2302  22.7923
 12.3108  22.8726
 12.3913  22.8186
 12.4718  22.9007
 12.5523  23.0518
 12.6328  23.1451
 12.7133  23.3814
 12.7938  23.5519
 12.8742  23.6927
 12.9548  23.8818
 13.0353  24.3987
 13.1158  25.0911
 13.1963  25.8822
 13.2768  26.8613
 13.3573  28.0342
 13.4378  28.7439
 13.5183  29.7611
 13.5988  29.9967
 13.6793  30.0005
 13.7598  29.74
 13.8403  29.5768
 13.9208  33.9316
 14.0013  34.6895
 14.0818  28.2009
 14.1623  27.4098
 14.2428  26.9406
 14.3233  26.4341
 14.4038  26.2869
 14.4843  25.9014
 14.5648  25.7836
 14.6453  25.5839
 14.7258  25.5132
 14.8063  25.2845
 14.8868  25.3249
 14.9673  25.2536
 15.0478  25.3466
 15.1283  25.698
 15.2088  28.5724
 15.2892  25.4741
 15.3698  24.9241
 15.4503  24.9436
 15.5308  24.8789
 15.6113  24.8321
 15.6918  24.8324
 15.7723  24.8915
 15.8528  24.781
 15.9332  25.1076
 16.0138  24.873
 16.0943  25.0692
 16.1748  25.1949
 16.2553  26.977
 16.3358  25.3584
 16.4163  24.9461
 16.4967  24.9629
 16.5773  24.9423
 16.6578  24.6982
 16.7383  24.701
 16.8188  24.7652
 16.8992  24.5713
 16.9798  24.5935
 17.0603  24.477
 17.1408  24.4385
 17.2213  24.4987
 17.3017  24.4077
 17.3823  24.2811
 17.4628  24.358
 17.5433  24.2151
 17.6238  24.2679
 17.7042  24.242
 17.7847  23.9846
 17.8653  24.0741
 17.9458  24.1256
 18.0263  24.6323
 18.1068  26.2743
 18.1872  24.4652
 18.2678  23.9978
 18.3483  24.0146
 18.4288  24.0053
 18.5093  23.9032
 18.5897  23.8802
 18.6703  23.6985
 18.7508  23.7635
 18.8313  23.9837
 18.9118  23.9444
 18.9922  23.9001
 19.0727  23.7955
 19.1533  23.845
 19.2338  23.8489
 19.3143  23.8975
 19.3948  23.859
 19.4752  24.0218
 19.5558  24.1631
 19.6363  24.9449
 19.7168  27.3492
 19.7973  25.3158
 19.8777  26.1489
 19.9582  24.3885
 20.0388  24.0517
 20.1193  24.1382
 20.1998  24.0552
 20.2803  24.0169
 20.3607  23.9609
 20.4413  24.0461
 20.5218  24.0692
 20.6023  24.2002
 20.6828  24.4844
 20.7632  26.6005
 20.8438  24.7728
 20.9243  24.2493
 21.0048  24.2351
 21.0853  24.2031
 21.1658  24.1573
 21.2462  24.1505
 21.3268  24.2119
 21.4073  24.2037
 21.4878  24.4262
 21.5683  24.4064
 21.6487  24.3924
 21.7293  24.3677
 21.8098  24.3969
 21.8903  24.4903
 21.9708  24.4441
 22.0512  24.5946
 22.1318  24.8633
 22.2123  24.5473
 22.2928  24.8489
 22.3733  24.9745
 22.4538  24.9667
 22.5343  25.146
 22.6148  25.2112
 22.6953  25.2921
 22.7758  25.5776
 22.8563  25.8455
 22.9367  26.362
 22.9943  26.8702