File: test-data-xrd/xrd-map-34-ID-E/Data_0024.chi
F:\20151113_APS_34IDE\\Brian\Particle1\OCV\Data_0024.tif
2-Theta Angle (Degrees)
Intensity
       2000
 0.07475  0.0000000E+00
 0.15525  0.0000000E+00
 0.23575  0.0000000E+00
 0.31625  0.0000000E+00
 0.39675  0.0000000E+00
 0.47725  0.0000000E+00
 0.55775  0.0000000E+00
 0.63825  0.0000000E+00
 0.71875  0.0000000E+00
 0.79925  0.0000000E+00
 0.87975  0.0000000E+00
 0.96025  0.0000000E+00
 1.04075  0.0000000E+00
 1.12125  0.0000000E+00
 1.20175  0.0000000E+00
 1.28225  0.0000000E+00
 1.36275  0.0000000E+00
 1.44325  0.0000000E+00
 1.52375  0.0000000E+00
 1.60425  0.0000000E+00
 1.68475  0.0000000E+00
 1.76525  0.0000000E+00
 1.84575  0.0000000E+00
 1.92625  0.0000000E+00
 2.00675  0.0000000E+00
 2.08725  0.0000000E+00
 2.16775  0.0000000E+00
 2.24825  0.0000000E+00
 2.32875  0.0000000E+00
 2.40925  0.0000000E+00
 2.48975  0.0000000E+00
 2.57025  0.0000000E+00
 2.65075  0.0000000E+00
 2.73125  0.0000000E+00
 2.81175  0.0000000E+00
 2.89225  35.5798
 2.97275  35.7717
 3.05325  34.5366
 3.13375  35.9069
 3.21425  35.2824
 3.29475  34.9813
 3.37525  34.2302
 3.45575  34.6121
 3.53625  33.733
 3.61675  33.5568
 3.69725  33.4089
 3.77775  33.3082
 3.85825  32.8021
 3.93875  32.9618
 4.01925  32.9067
 4.09975  32.6606
 4.18025  32.5183
 4.26075  32.1384
 4.34125  32.6503
 4.42175  32.3846
 4.50225  32.4252
 4.58275  32.7111
 4.66325  33.1585
 4.74375  33.2316
 4.82425  32.5029
 4.90475  32.9819
 4.98525  32.8717
 5.06575  33.2572
 5.14625  33.9209
 5.22675  34.1195
 5.30725  34.5006
 5.38775  34.6869
 5.46825  34.7736
 5.54875  34.886
 5.62925  35.5223
 5.70975  36.0806
 5.79025  35.8672
 5.87075  36.5636
 5.95125  43.2348
 6.03175  40.9922
 6.11225  37.0173
 6.19275  37.3173
 6.27325  37.7891
 6.35375  38.2321
 6.43425  38.7305
 6.51475  39.4167
 6.59525  39.5632
 6.67575  40.4462
 6.75625  40.8835
 6.83675  41.6583
 6.91725  41.8938
 6.99775  42.66
 7.07825  42.8036
 7.15875  43.6252
 7.23925  43.8058
 7.31975  44.1093
 7.40025  44.7273
 7.48075  44.5845
 7.56125  44.6546
 7.64175  44.792
 7.72225  44.6437
 7.80275  44.4408
 7.88325  44.444
 7.96375  44.0258
 8.04425  43.624
 8.12475  43.1895
 8.20525  42.5678
 8.28575  41.3113
 8.36625  40.3879
 8.44675  39.367
 8.52725  38.1365
 8.60775  36.8049
 8.68825  35.7758
 8.76875  34.3454
 8.84925  33.4737
 8.92975  32.0887
 9.01025  30.9374
 9.09075  30.4077
 9.17125  29.5091
 9.25175  28.5287
 9.33225  28.0159
 9.41275  27.5055
 9.49325  26.8162
 9.57375  26.542
 9.65425  25.8463
 9.73475  25.5694
 9.81525  25.2398
 9.89575  25.1221
 9.97625  24.8524
 10.0567  24.4557
 10.1373  24.3831
 10.2178  24.1304
 10.2982  23.8553
 10.3788  23.8274
 10.4593  23.6303
 10.5397  23.4955
 10.6203  23.3143
 10.7007  23.4067
 10.7813  23.3311
 10.8618  23.1163
 10.9422  22.9626
 11.0228  22.8578
 11.1033  22.8584
 11.1837  22.8976
 11.2643  22.8539
 11.3447  22.9091
 11.4253  23.3824
 11.5058  25.14
 11.5862  49.167
 11.6668  25.4966
 11.7473  23.395
 11.8277  23.2283
 11.9083  22.8742
 11.9887  23.8697
 12.0693  24.1277
 12.1498  24.6709
 12.2302  22.8588
 12.3108  22.9486
 12.3913  22.8237
 12.4718  22.8366
 12.5523  22.9216
 12.6328  23.0887
 12.7133  23.1079
 12.7938  23.3299
 12.8742  23.734
 12.9548  23.9697
 13.0353  24.5052
 13.1158  25.284
 13.1963  25.8981
 13.2768  26.9708
 13.3573  27.9536
 13.4378  28.7274
 13.5183  29.7085
 13.5988  30.1215
 13.6793  30.2885
 13.7598  29.9341
 13.8403  30.1989
 13.9208  42.2106
 14.0013  36.854
 14.0818  28.3392
 14.1623  27.6181
 14.2428  27.097
 14.3233  26.5252
 14.4038  26.3001
 14.4843  25.877
 14.5648  25.8449
 14.6453  25.5233
 14.7258  25.2983
 14.8063  25.1956
 14.8868  25.1304
 14.9673  25.1647
 15.0478  25.1947
 15.1283  25.353
 15.2088  27.9613
 15.2892  25.2733
 15.3698  24.9529
 15.4503  24.7568
 15.5308  24.7657
 15.6113  24.7116
 15.6918  24.9386
 15.7723  24.8589
 15.8528  24.7932
 15.9332  24.9871
 16.0138  24.8865
 16.0943  25.117
 16.1748  25.2551
 16.2553  28.2213
 16.3358  25.4874
 16.4163  25.133
 16.4967  24.9274
 16.5773  24.845
 16.6578  24.7324
 16.7383  24.725
 16.8188  24.6663
 16.8992  24.639
 16.9798  24.4841
 17.0603  24.4684
 17.1408  24.4597
 17.2213  24.3653
 17.3017  24.3069
 17.3823  24.2007
 17.4628  24.468
 17.5433  24.3644
 17.6238  24.0744
 17.7042  23.9375
 17.7847  23.8776
 17.8653  23.965
 17.9458  23.9759
 18.0263  24.5219
 18.1068  25.4446
 18.1872  24.2638
 18.2678  23.8833
 18.3483  24.0104
 18.4288  23.8751
 18.5093  23.8577
 18.5897  23.6987
 18.6703  23.678
 18.7508  23.7631
 18.8313  23.7108
 18.9118  23.7861
 18.9922  23.7188
 19.0727  23.8149
 19.1533  23.7832
 19.2338  23.6957
 19.3143  23.9823
 19.3948  23.9267
 19.4752  23.8983
 19.5558  24.0315
 19.6363  24.6238
 19.7168  26.8274
 19.7973  25.4517
 19.8777  26.6504
 19.9582  24.2943
 20.0388  24.0422
 20.1193  24.0221
 20.1998  24.0004
 20.2803  23.9368
 20.3607  23.9364
 20.4413  24.0224
 20.5218  23.8936
 20.6023  24.1279
 20.6828  24.384
 20.7632  26.1211
 20.8438  24.4536
 20.9243  24.2193
 21.0048  24.112
 21.0853  24.1217
 21.1658  24.0727
 21.2462  24.0853
 21.3268  23.9839
 21.4073  24.1257
 21.4878  24.1609
 21.5683  24.1668
 21.6487  24.2399
 21.7293  24.2891
 21.8098  24.2691
 21.8903  24.4712
 21.9708  24.5231
 22.0512  24.5018
 22.1318  24.5019
 22.2123  24.6882
 22.2928  24.6612
 22.3733  24.7279
 22.4538  24.7915
 22.5343  24.9668
 22.6148  25.0695
 22.6953  25.3308
 22.7758  25.58
 22.8563  25.7282
 22.9367  26.1836
 22.9943  26.4377