File: test-data-xrd/xrd-map-34-ID-E/Data_0075.chi
F:\20151113_APS_34IDE\\Brian\Particle1\OCV\Data_0075.tif
2-Theta Angle (Degrees)
Intensity
       2000
 0.07475  0.0000000E+00
 0.15525  0.0000000E+00
 0.23575  0.0000000E+00
 0.31625  0.0000000E+00
 0.39675  0.0000000E+00
 0.47725  0.0000000E+00
 0.55775  0.0000000E+00
 0.63825  0.0000000E+00
 0.71875  0.0000000E+00
 0.79925  0.0000000E+00
 0.87975  0.0000000E+00
 0.96025  0.0000000E+00
 1.04075  0.0000000E+00
 1.12125  0.0000000E+00
 1.20175  0.0000000E+00
 1.28225  0.0000000E+00
 1.36275  0.0000000E+00
 1.44325  0.0000000E+00
 1.52375  0.0000000E+00
 1.60425  0.0000000E+00
 1.68475  0.0000000E+00
 1.76525  0.0000000E+00
 1.84575  0.0000000E+00
 1.92625  0.0000000E+00
 2.00675  0.0000000E+00
 2.08725  0.0000000E+00
 2.16775  0.0000000E+00
 2.24825  0.0000000E+00
 2.32875  0.0000000E+00
 2.40925  0.0000000E+00
 2.48975  0.0000000E+00
 2.57025  0.0000000E+00
 2.65075  0.0000000E+00
 2.73125  0.0000000E+00
 2.81175  0.0000000E+00
 2.89225  36.3151
 2.97275  36.4083
 3.05325  36.9496
 3.13375  35.3392
 3.21425  35.5956
 3.29475  34.4417
 3.37525  34.721
 3.45575  35.2011
 3.53625  34.4718
 3.61675  33.952
 3.69725  33.1809
 3.77775  33.2165
 3.85825  35.0332
 3.93875  32.4499
 4.01925  33.1138
 4.09975  32.4583
 4.18025  32.7536
 4.26075  32.4999
 4.34125  32.4335
 4.42175  32.2512
 4.50225  32.9607
 4.58275  32.5234
 4.66325  33.2697
 4.74375  32.8937
 4.82425  32.6214
 4.90475  32.657
 4.98525  32.9295
 5.06575  33.4009
 5.14625  33.4211
 5.22675  33.9625
 5.30725  34.2709
 5.38775  34.6645
 5.46825  34.4569
 5.54875  34.9466
 5.62925  34.9829
 5.70975  35.3419
 5.79025  36.0975
 5.87075  36.9635
 5.95125  47.5884
 6.03175  44.4515
 6.11225  37.1588
 6.19275  37.2741
 6.27325  37.5247
 6.35375  38.1124
 6.43425  38.3348
 6.51475  39.2301
 6.59525  39.7132
 6.67575  40.3729
 6.75625  40.8664
 6.83675  41.4561
 6.91725  41.8819
 6.99775  42.3246
 7.07825  42.4298
 7.15875  43.2999
 7.23925  43.7385
 7.31975  43.7583
 7.40025  43.8835
 7.48075  44.2892
 7.56125  44.3593
 7.64175  44.3469
 7.72225  44.6416
 7.80275  44.1899
 7.88325  43.9974
 7.96375  43.5204
 8.04425  43.289
 8.12475  42.6511
 8.20525  42.0797
 8.28575  41.0592
 8.36625  40.0781
 8.44675  38.8219
 8.52725  37.6235
 8.60775  36.2664
 8.68825  35.429
 8.76875  34.8977
 8.84925  32.707
 8.92975  31.8914
 9.01025  30.5813
 9.09075  29.5672
 9.17125  29.093
 9.25175  27.9831
 9.33225  27.2617
 9.41275  26.8305
 9.49325  26.4531
 9.57375  25.9032
 9.65425  25.5192
 9.73475  25.1708
 9.81525  24.7894
 9.89575  24.6967
 9.97625  24.4608
 10.0567  24.0811
 10.1373  23.7452
 10.2178  23.6864
 10.2982  23.4209
 10.3788  23.1485
 10.4593  23.451
 10.5397  23.0455
 10.6203  22.904
 10.7007  22.9376
 10.7813  22.8885
 10.8618  22.6745
 10.9422  22.71
 11.0228  22.5976
 11.1033  22.4826
 11.1837  22.468
 11.2643  22.4733
 11.3447  22.5117
 11.4253  22.8128
 11.5058  23.147
 11.5862  30.0111
 11.6668  23.9806
 11.7473  22.6615
 11.8277  22.5268
 11.9083  22.4928
 11.9887  23.4696
 12.0693  23.4946
 12.1498  23.4648
 12.2302  22.6007
 12.3108  22.5833
 12.3913  22.6023
 12.4718  22.7109
 12.5523  22.609
 12.6328  22.7925
 12.7133  22.8184
 12.7938  22.9529
 12.8742  23.1955
 12.9548  23.791
 13.0353  24.2734
 13.1158  24.6263
 13.1963  25.5351
 13.2768  26.6912
 13.3573  27.6642
 13.4378  28.6192
 13.5183  29.5324
 13.5988  29.8353
 13.6793  29.6497
 13.7598  29.2705
 13.8403  29.1649
 13.9208  31.6617
 14.0013  30.6414
 14.0818  27.6335
 14.1623  27.1835
 14.2428  26.5439
 14.3233  26.0304
 14.4038  25.783
 14.4843  25.6169
 14.5648  25.671
 14.6453  25.4598
 14.7258  25.1466
 14.8063  24.9482
 14.8868  24.9061
 14.9673  24.7184
 15.0478  24.8294
 15.1283  25.0376
 15.2088  28.0105
 15.2892  24.8287
 15.3698  24.5875
 15.4503  24.6396
 15.5308  24.3808
 15.6113  24.3863
 15.6918  24.5098
 15.7723  24.5615
 15.8528  24.6215
 15.9332  24.5146
 16.0138  24.6395
 16.0943  24.6264
 16.1748  24.7525
 16.2553  25.2451
 16.3358  24.9536
 16.4163  24.5952
 16.4967  24.5782
 16.5773  24.4962
 16.6578  24.6093
 16.7383  24.5067
 16.8188  24.3308
 16.8992  24.4051
 16.9798  24.296
 17.0603  24.1797
 17.1408  24.2075
 17.2213  24.0841
 17.3017  24.0842
 17.3823  23.9814
 17.4628  24.0067
 17.5433  23.808
 17.6238  23.8705
 17.7042  23.7951
 17.7847  23.7304
 17.8653  23.7603
 17.9458  23.872
 18.0263  24.5252
 18.1068  25.6628
 18.1872  24.3738
 18.2678  23.6564
 18.3483  23.634
 18.4288  23.6188
 18.5093  23.4474
 18.5897  23.5718
 18.6703  23.4042
 18.7508  23.3163
 18.8313  23.5184
 18.9118  23.4775
 18.9922  23.5134
 19.0727  23.5277
 19.1533  23.3996
 19.2338  23.4648
 19.3143  23.4672
 19.3948  23.4329
 19.4752  23.5987
 19.5558  23.6627
 19.6363  24.1834
 19.7168  26.4708
 19.7973  25.7764
 19.8777  27.8499
 19.9582  24.1222
 20.0388  23.8403
 20.1193  23.7622
 20.1998  23.6593
 20.2803  23.7698
 20.3607  23.6452
 20.4413  23.7003
 20.5218  23.6376
 20.6023  23.8562
 20.6828  24.396
 20.7632  27.2276
 20.8438  24.5449
 20.9243  23.9414
 21.0048  23.9297
 21.0853  23.9466
 21.1658  23.8698
 21.2462  23.8322
 21.3268  23.8952
 21.4073  23.885
 21.4878  23.9144
 21.5683  24.0159
 21.6487  24.1259
 21.7293  23.9828
 21.8098  23.9939
 21.8903  24.1576
 21.9708  24.1589
 22.0512  24.2385
 22.1318  24.3631
 22.2123  24.1758
 22.2928  24.4175
 22.3733  24.5404
 22.4538  24.675
 22.5343  24.718
 22.6148  24.826
 22.6953  25.0071
 22.7758  25.159
 22.8563  25.5575
 22.9367  25.9116
 22.9943  26.3637