File: test-data-xrd/xrd-map-34-ID-E/Data_0125.chi
F:\20151113_APS_34IDE\\Brian\Particle1\OCV\Data_0125.tif
2-Theta Angle (Degrees)
Intensity
       2000
 0.07475  0.0000000E+00
 0.15525  0.0000000E+00
 0.23575  0.0000000E+00
 0.31625  0.0000000E+00
 0.39675  0.0000000E+00
 0.47725  0.0000000E+00
 0.55775  0.0000000E+00
 0.63825  0.0000000E+00
 0.71875  0.0000000E+00
 0.79925  0.0000000E+00
 0.87975  0.0000000E+00
 0.96025  0.0000000E+00
 1.04075  0.0000000E+00
 1.12125  0.0000000E+00
 1.20175  0.0000000E+00
 1.28225  0.0000000E+00
 1.36275  0.0000000E+00
 1.44325  0.0000000E+00
 1.52375  0.0000000E+00
 1.60425  0.0000000E+00
 1.68475  0.0000000E+00
 1.76525  0.0000000E+00
 1.84575  0.0000000E+00
 1.92625  0.0000000E+00
 2.00675  0.0000000E+00
 2.08725  0.0000000E+00
 2.16775  0.0000000E+00
 2.24825  0.0000000E+00
 2.32875  0.0000000E+00
 2.40925  0.0000000E+00
 2.48975  0.0000000E+00
 2.57025  0.0000000E+00
 2.65075  0.0000000E+00
 2.73125  0.0000000E+00
 2.81175  0.0000000E+00
 2.89225  34.0102
 2.97275  34.9402
 3.05325  35.0993
 3.13375  34.5772
 3.21425  35.3089
 3.29475  34.8107
 3.37525  34.3553
 3.45575  34.8745
 3.53625  33.8704
 3.61675  32.9959
 3.69725  32.8849
 3.77775  33.3222
 3.85825  33.1541
 3.93875  32.4262
 4.01925  32.459
 4.09975  32.5178
 4.18025  32.0638
 4.26075  32.1387
 4.34125  32.1933
 4.42175  32.3447
 4.50225  32.8611
 4.58275  32.7041
 4.66325  32.7144
 4.74375  32.4876
 4.82425  32.6147
 4.90475  32.663
 4.98525  33.1539
 5.06575  33.243
 5.14625  34.066
 5.22675  33.9464
 5.30725  34.3213
 5.38775  34.7271
 5.46825  34.6581
 5.54875  35.0843
 5.62925  35.4474
 5.70975  35.5379
 5.79025  35.8869
 5.87075  36.1824
 5.95125  39.879
 6.03175  40.3465
 6.11225  36.6716
 6.19275  36.7334
 6.27325  37.26
 6.35375  37.8494
 6.43425  38.3883
 6.51475  39.0583
 6.59525  39.4825
 6.67575  40.2182
 6.75625  41.1182
 6.83675  41.4895
 6.91725  42.0065
 6.99775  42.0074
 7.07825  42.6985
 7.15875  43.1816
 7.23925  43.477
 7.31975  43.814
 7.40025  43.9759
 7.48075  44.2217
 7.56125  44.5064
 7.64175  44.4119
 7.72225  44.1823
 7.80275  43.9926
 7.88325  43.7278
 7.96375  43.3122
 8.04425  43.1558
 8.12475  42.8076
 8.20525  41.8604
 8.28575  41.1937
 8.36625  39.9941
 8.44675  38.9603
 8.52725  37.7293
 8.60775  36.4264
 8.68825  35.1653
 8.76875  33.7728
 8.84925  32.7511
 8.92975  31.7686
 9.01025  30.6474
 9.09075  29.5474
 9.17125  28.9271
 9.25175  28.2257
 9.33225  27.4665
 9.41275  26.8499
 9.49325  26.5491
 9.57375  25.9645
 9.65425  25.5703
 9.73475  25.3373
 9.81525  24.948
 9.89575  24.5458
 9.97625  24.2489
 10.0567  24.0477
 10.1373  23.9093
 10.2178  23.9007
 10.2982  23.7011
 10.3788  23.427
 10.4593  23.183
 10.5397  23.0898
 10.6203  23.0062
 10.7007  22.9996
 10.7813  22.7388
 10.8618  22.7104
 10.9422  22.7253
 11.0228  22.6227
 11.1033  22.6535
 11.1837  22.4373
 11.2643  22.3776
 11.3447  22.4132
 11.4253  22.7466
 11.5058  23.3725
 11.5862  40.0154
 11.6668  25.2851
 11.7473  22.4742
 11.8277  22.4944
 11.9083  22.5355
 11.9887  22.8033
 12.0693  23.1641
 12.1498  23.3139
 12.2302  22.3238
 12.3108  22.3875
 12.3913  22.3605
 12.4718  22.4607
 12.5523  22.5607
 12.6328  22.663
 12.7133  22.8526
 12.7938  22.7995
 12.8742  23.2356
 12.9548  23.5505
 13.0353  23.9426
 13.1158  24.7353
 13.1963  25.4451
 13.2768  26.4703
 13.3573  27.6655
 13.4378  28.5815
 13.5183  29.2962
 13.5988  29.8542
 13.6793  29.6273
 13.7598  29.1636
 13.8403  28.7847
 13.9208  30.1475
 14.0013  29.9308
 14.0818  27.3106
 14.1623  26.7276
 14.2428  26.4469
 14.3233  26.0576
 14.4038  25.9097
 14.4843  25.6222
 14.5648  25.5611
 14.6453  25.2431
 14.7258  24.925
 14.8063  25.0005
 14.8868  24.7819
 14.9673  24.5988
 15.0478  24.6827
 15.1283  24.9056
 15.2088  25.842
 15.2892  24.5364
 15.3698  24.4912
 15.4503  24.5035
 15.5308  24.3792
 15.6113  24.2937
 15.6918  24.3976
 15.7723  24.4009
 15.8528  24.4139
 15.9332  24.5284
 16.0138  24.5241
 16.0943  24.5042
 16.1748  24.8174
 16.2553  26.8999
 16.3358  24.9058
 16.4163  24.8066
 16.4967  24.6573
 16.5773  24.6836
 16.6578  24.714
 16.7383  24.4949
 16.8188  24.3393
 16.8992  24.1739
 16.9798  24.146
 17.0603  24.0329
 17.1408  23.9584
 17.2213  24.0728
 17.3017  23.9872
 17.3823  23.9224
 17.4628  23.8982
 17.5433  23.7391
 17.6238  23.6215
 17.7042  23.6549
 17.7847  23.6035
 17.8653  23.6156
 17.9458  23.5207
 18.0263  24.141
 18.1068  24.8065
 18.1872  23.7781
 18.2678  23.5331
 18.3483  23.4632
 18.4288  23.4097
 18.5093  23.3707
 18.5897  23.3963
 18.6703  23.4374
 18.7508  23.3405
 18.8313  23.3311
 18.9118  23.2597
 18.9922  23.216
 19.0727  23.3682
 19.1533  23.3999
 19.2338  23.4595
 19.3143  23.3312
 19.3948  23.6173
 19.4752  23.4673
 19.5558  23.4168
 19.6363  23.7576
 19.7168  24.9317
 19.7973  24.7721
 19.8777  25.2319
 19.9582  23.706
 20.0388  23.5982
 20.1193  23.5656
 20.1998  23.545
 20.2803  23.4748
 20.3607  23.4364
 20.4413  23.6325
 20.5218  23.5512
 20.6023  23.6152
 20.6828  24.0118
 20.7632  26.5589
 20.8438  24.3801
 20.9243  23.808
 21.0048  23.723
 21.0853  23.7125
 21.1658  23.6802
 21.2462  23.6678
 21.3268  23.6643
 21.4073  23.7173
 21.4878  23.8097
 21.5683  23.8426
 21.6487  23.798
 21.7293  23.8312
 21.8098  23.9423
 21.8903  23.9925
 21.9708  23.9793
 22.0512  24.104
 22.1318  24.2018
 22.2123  24.1492
 22.2928  24.0898
 22.3733  24.432
 22.4538  24.4565
 22.5343  24.6464
 22.6148  24.7949
 22.6953  24.9394
 22.7758  25.0442
 22.8563  25.3016
 22.9367  25.8178
 22.9943  26.0627