File: test-data-xrd/xrd-map-34-ID-E/Data_0088.chi
F:\20151113_APS_34IDE\\Brian\Particle1\OCV\Data_0088.tif
2-Theta Angle (Degrees)
Intensity
       2000
 0.07475  0.0000000E+00
 0.15525  0.0000000E+00
 0.23575  0.0000000E+00
 0.31625  0.0000000E+00
 0.39675  0.0000000E+00
 0.47725  0.0000000E+00
 0.55775  0.0000000E+00
 0.63825  0.0000000E+00
 0.71875  0.0000000E+00
 0.79925  0.0000000E+00
 0.87975  0.0000000E+00
 0.96025  0.0000000E+00
 1.04075  0.0000000E+00
 1.12125  0.0000000E+00
 1.20175  0.0000000E+00
 1.28225  0.0000000E+00
 1.36275  0.0000000E+00
 1.44325  0.0000000E+00
 1.52375  0.0000000E+00
 1.60425  0.0000000E+00
 1.68475  0.0000000E+00
 1.76525  0.0000000E+00
 1.84575  0.0000000E+00
 1.92625  0.0000000E+00
 2.00675  0.0000000E+00
 2.08725  0.0000000E+00
 2.16775  0.0000000E+00
 2.24825  0.0000000E+00
 2.32875  0.0000000E+00
 2.40925  0.0000000E+00
 2.48975  0.0000000E+00
 2.57025  0.0000000E+00
 2.65075  0.0000000E+00
 2.73125  0.0000000E+00
 2.81175  0.0000000E+00
 2.89225  34.1274
 2.97275  35.8697
 3.05325  35.9116
 3.13375  34.3429
 3.21425  36.2981
 3.29475  34.5662
 3.37525  34.8914
 3.45575  34.9844
 3.53625  34.0731
 3.61675  33.3919
 3.69725  33.5045
 3.77775  33.1029
 3.85825  32.9681
 3.93875  32.8368
 4.01925  32.9034
 4.09975  32.7839
 4.18025  32.3712
 4.26075  32.1338
 4.34125  32.5328
 4.42175  32.6955
 4.50225  32.62
 4.58275  32.7539
 4.66325  32.7763
 4.74375  32.633
 4.82425  32.9327
 4.90475  32.6882
 4.98525  33.2412
 5.06575  33.0681
 5.14625  33.9366
 5.22675  34.083
 5.30725  34.3272
 5.38775  34.8523
 5.46825  34.762
 5.54875  35.051
 5.62925  35.7858
 5.70975  35.5022
 5.79025  36.0616
 5.87075  35.8202
 5.95125  40.2435
 6.03175  39.8963
 6.11225  37.2969
 6.19275  37.103
 6.27325  37.6542
 6.35375  38.754
 6.43425  38.5676
 6.51475  39.4558
 6.59525  39.7579
 6.67575  40.443
 6.75625  40.9609
 6.83675  41.6308
 6.91725  42.438
 6.99775  43.2639
 7.07825  43.0915
 7.15875  43.6471
 7.23925  43.7819
 7.31975  44.392
 7.40025  44.0889
 7.48075  44.5318
 7.56125  44.6991
 7.64175  44.7349
 7.72225  44.5339
 7.80275  45.0754
 7.88325  44.5374
 7.96375  44.159
 8.04425  43.6634
 8.12475  43.1916
 8.20525  42.0552
 8.28575  41.2732
 8.36625  40.1099
 8.44675  39.2872
 8.52725  38.2462
 8.60775  36.7876
 8.68825  35.6329
 8.76875  34.3563
 8.84925  32.9936
 8.92975  32.0074
 9.01025  30.829
 9.09075  30.0625
 9.17125  29.4083
 9.25175  28.3689
 9.33225  27.8545
 9.41275  26.9372
 9.49325  26.5549
 9.57375  26.1454
 9.65425  25.7619
 9.73475  25.4049
 9.81525  24.9925
 9.89575  24.7269
 9.97625  24.5347
 10.0567  24.2943
 10.1373  24.0453
 10.2178  23.8781
 10.2982  23.7994
 10.3788  23.4475
 10.4593  23.1833
 10.5397  23.305
 10.6203  22.9786
 10.7007  23.0617
 10.7813  22.8155
 10.8618  22.813
 10.9422  22.6041
 11.0228  22.569
 11.1033  22.5525
 11.1837  22.6271
 11.2643  22.5885
 11.3447  22.5258
 11.4253  22.7302
 11.5058  22.8036
 11.5862  28.4258
 11.6668  23.3883
 11.7473  22.6158
 11.8277  22.5047
 11.9083  22.483
 11.9887  23.0688
 12.0693  22.8504
 12.1498  22.7016
 12.2302  22.4037
 12.3108  22.5465
 12.3913  22.4937
 12.4718  22.4974
 12.5523  22.7293
 12.6328  22.8414
 12.7133  22.91
 12.7938  23.0599
 12.8742  23.2767
 12.9548  23.804
 13.0353  24.1188
 13.1158  24.9012
 13.1963  25.769
 13.2768  26.8097
 13.3573  27.6765
 13.4378  28.7295
 13.5183  29.3077
 13.5988  29.8955
 13.6793  29.9554
 13.7598  29.4942
 13.8403  29.0885
 13.9208  30.2838
 14.0013  29.2218
 14.0818  27.544
 14.1623  27.0918
 14.2428  26.5278
 14.3233  26.2802
 14.4038  26.0478
 14.4843  25.6467
 14.5648  25.635
 14.6453  25.4083
 14.7258  25.2837
 14.8063  25.094
 14.8868  24.9832
 14.9673  24.952
 15.0478  24.8711
 15.1283  24.8803
 15.2088  25.5204
 15.2892  24.7957
 15.3698  24.5938
 15.4503  24.4718
 15.5308  24.3839
 15.6113  24.655
 15.6918  24.6442
 15.7723  24.584
 15.8528  24.5799
 15.9332  24.6827
 16.0138  24.7327
 16.0943  24.6867
 16.1748  24.8261
 16.2553  25.1276
 16.3358  24.973
 16.4163  24.8312
 16.4967  24.6176
 16.5773  24.6673
 16.6578  24.6872
 16.7383  24.5638
 16.8188  24.5871
 16.8992  24.3258
 16.9798  24.5773
 17.0603  24.1093
 17.1408  24.131
 17.2213  24.1603
 17.3017  24.1999
 17.3823  24.0107
 17.4628  24.0482
 17.5433  23.818
 17.6238  23.8418
 17.7042  23.751
 17.7847  23.8189
 17.8653  23.8807
 17.9458  23.6999
 18.0263  23.8451
 18.1068  24.063
 18.1872  23.6374
 18.2678  23.6853
 18.3483  23.506
 18.4288  23.5917
 18.5093  23.5974
 18.5897  23.5469
 18.6703  23.566
 18.7508  23.6137
 18.8313  23.5291
 18.9118  23.6329
 18.9922  23.4974
 19.0727  23.5266
 19.1533  23.5022
 19.2338  23.5232
 19.3143  23.5037
 19.3948  23.5675
 19.4752  23.6639
 19.5558  23.6341
 19.6363  23.7118
 19.7168  25.4188
 19.7973  24.2346
 19.8777  25.193
 19.9582  23.6664
 20.0388  23.6229
 20.1193  23.6998
 20.1998  23.5731
 20.2803  23.7002
 20.3607  23.6921
 20.4413  23.7156
 20.5218  23.7163
 20.6023  23.8621
 20.6828  23.9414
 20.7632  25.0678
 20.8438  24.0895
 20.9243  23.956
 21.0048  24.1742
 21.0853  23.8322
 21.1658  23.743
 21.2462  23.8538
 21.3268  23.8575
 21.4073  23.8303
 21.4878  23.8683
 21.5683  23.9671
 21.6487  24.1363
 21.7293  24.1306
 21.8098  24.0732
 21.8903  24.0961
 21.9708  24.2055
 22.0512  24.1889
 22.1318  24.3203
 22.2123  24.3686
 22.2928  24.4644
 22.3733  24.5127
 22.4538  24.6162
 22.5343  24.6813
 22.6148  24.9139
 22.6953  25.1136
 22.7758  25.126
 22.8563  25.4716
 22.9367  25.9439
 22.9943  26.196