File: test-data-xrd/xrd-map-34-ID-E/Data_0056.chi
F:\20151113_APS_34IDE\\Brian\Particle1\OCV\Data_0056.tif
2-Theta Angle (Degrees)
Intensity
       2000
 0.07475  0.0000000E+00
 0.15525  0.0000000E+00
 0.23575  0.0000000E+00
 0.31625  0.0000000E+00
 0.39675  0.0000000E+00
 0.47725  0.0000000E+00
 0.55775  0.0000000E+00
 0.63825  0.0000000E+00
 0.71875  0.0000000E+00
 0.79925  0.0000000E+00
 0.87975  0.0000000E+00
 0.96025  0.0000000E+00
 1.04075  0.0000000E+00
 1.12125  0.0000000E+00
 1.20175  0.0000000E+00
 1.28225  0.0000000E+00
 1.36275  0.0000000E+00
 1.44325  0.0000000E+00
 1.52375  0.0000000E+00
 1.60425  0.0000000E+00
 1.68475  0.0000000E+00
 1.76525  0.0000000E+00
 1.84575  0.0000000E+00
 1.92625  0.0000000E+00
 2.00675  0.0000000E+00
 2.08725  0.0000000E+00
 2.16775  0.0000000E+00
 2.24825  0.0000000E+00
 2.32875  0.0000000E+00
 2.40925  0.0000000E+00
 2.48975  0.0000000E+00
 2.57025  0.0000000E+00
 2.65075  0.0000000E+00
 2.73125  0.0000000E+00
 2.81175  0.0000000E+00
 2.89225  35.5105
 2.97275  35.2979
 3.05325  35.5408
 3.13375  36.1247
 3.21425  36.3129
 3.29475  35.1854
 3.37525  35.167
 3.45575  34.5279
 3.53625  33.7104
 3.61675  33.7101
 3.69725  33.637
 3.77775  33.205
 3.85825  32.8592
 3.93875  32.4091
 4.01925  32.7115
 4.09975  32.109
 4.18025  32.0321
 4.26075  32.4967
 4.34125  32.2617
 4.42175  32.5556
 4.50225  33.0451
 4.58275  32.6114
 4.66325  32.6448
 4.74375  32.6583
 4.82425  32.7837
 4.90475  32.5951
 4.98525  33.2535
 5.06575  33.2462
 5.14625  33.7033
 5.22675  34.27
 5.30725  34.2982
 5.38775  34.6847
 5.46825  35.2206
 5.54875  35.3149
 5.62925  35.6947
 5.70975  36.4113
 5.79025  38.2093
 5.87075  41.1299
 5.95125  110.376
 6.03175  129.166
 6.11225  41.2128
 6.19275  38.6962
 6.27325  38.4199
 6.35375  38.3724
 6.43425  38.8407
 6.51475  39.5451
 6.59525  39.8318
 6.67575  40.6218
 6.75625  40.7291
 6.83675  41.8455
 6.91725  42.0067
 6.99775  42.3676
 7.07825  42.7131
 7.15875  43.415
 7.23925  43.3707
 7.31975  43.9122
 7.40025  44.1421
 7.48075  44.252
 7.56125  44.3082
 7.64175  44.5103
 7.72225  44.3336
 7.80275  43.9902
 7.88325  44.1446
 7.96375  43.7182
 8.04425  43.217
 8.12475  42.608
 8.20525  42.0986
 8.28575  41.0785
 8.36625  39.9519
 8.44675  39.1614
 8.52725  37.7641
 8.60775  36.504
 8.68825  34.8157
 8.76875  33.7604
 8.84925  32.6499
 8.92975  31.5837
 9.01025  30.3197
 9.09075  29.8853
 9.17125  28.9584
 9.25175  28.1154
 9.33225  27.191
 9.41275  26.9794
 9.49325  26.5507
 9.57375  25.9755
 9.65425  25.5763
 9.73475  25.1499
 9.81525  24.9291
 9.89575  24.4992
 9.97625  24.2725
 10.0567  24.1469
 10.1373  23.8484
 10.2178  23.5933
 10.2982  23.5742
 10.3788  23.2616
 10.4593  23.3405
 10.5397  23.1299
 10.6203  22.9992
 10.7007  23.086
 10.7813  22.7603
 10.8618  22.601
 10.9422  22.5589
 11.0228  22.5874
 11.1033  22.435
 11.1837  22.4997
 11.2643  22.4547
 11.3447  22.5073
 11.4253  22.6821
 11.5058  22.7805
 11.5862  26.5864
 11.6668  23.1091
 11.7473  22.5295
 11.8277  22.365
 11.9083  22.5223
 11.9887  23.7377
 12.0693  23.9123
 12.1498  26.2329
 12.2302  22.6293
 12.3108  22.7231
 12.3913  22.5637
 12.4718  22.5578
 12.5523  22.7214
 12.6328  22.8483
 12.7133  22.8722
 12.7938  22.9609
 12.8742  23.4889
 12.9548  23.7873
 13.0353  24.1189
 13.1158  24.869
 13.1963  25.7939
 13.2768  26.7321
 13.3573  27.7002
 13.4378  28.5229
 13.5183  29.2867
 13.5988  29.7514
 13.6793  29.7249
 13.7598  29.4697
 13.8403  29.1868
 13.9208  32.7167
 14.0013  30.6605
 14.0818  27.673
 14.1623  27.0476
 14.2428  26.593
 14.3233  26.2024
 14.4038  25.9717
 14.4843  25.7588
 14.5648  25.6728
 14.6453  25.3875
 14.7258  25.2936
 14.8063  25.0423
 14.8868  24.949
 14.9673  24.8916
 15.0478  25.0266
 15.1283  25.498
 15.2088  26.9697
 15.2892  24.8304
 15.3698  24.64
 15.4503  24.449
 15.5308  24.5844
 15.6113  24.6291
 15.6918  24.6434
 15.7723  24.6346
 15.8528  24.5965
 15.9332  24.5889
 16.0138  24.7477
 16.0943  24.8169
 16.1748  25.1567
 16.2553  28.5629
 16.3358  25.1028
 16.4163  24.6921
 16.4967  24.7335
 16.5773  24.6105
 16.6578  24.6922
 16.7383  24.5257
 16.8188  24.4321
 16.8992  24.637
 16.9798  24.3232
 17.0603  24.1956
 17.1408  24.1983
 17.2213  24.1272
 17.3017  24.0048
 17.3823  24.1012
 17.4628  23.9237
 17.5433  23.8793
 17.6238  23.8835
 17.7042  24.0124
 17.7847  23.7962
 17.8653  23.7604
 17.9458  23.7951
 18.0263  24.5778
 18.1068  26.8678
 18.1872  25.181
 18.2678  23.6939
 18.3483  23.589
 18.4288  23.62
 18.5093  23.6743
 18.5897  23.6231
 18.6703  23.6278
 18.7508  23.4234
 18.8313  23.5039
 18.9118  23.4993
 18.9922  23.2994
 19.0727  23.5365
 19.1533  23.5182
 19.2338  23.5207
 19.3143  23.5464
 19.3948  23.6156
 19.4752  23.6836
 19.5558  23.7387
 19.6363  24.0563
 19.7168  26.6643
 19.7973  25.143
 19.8777  27.5479
 19.9582  24.0247
 20.0388  23.8532
 20.1193  23.8194
 20.1998  23.7757
 20.2803  23.7094
 20.3607  23.6726
 20.4413  23.7741
 20.5218  23.6291
 20.6023  23.8921
 20.6828  24.3626
 20.7632  26.3317
 20.8438  24.2358
 20.9243  24.028
 21.0048  23.8276
 21.0853  23.8869
 21.1658  23.84
 21.2462  23.9374
 21.3268  23.8027
 21.4073  23.9366
 21.4878  23.9151
 21.5683  23.8862
 21.6487  23.993
 21.7293  24.2193
 21.8098  24.1933
 21.8903  24.1139
 21.9708  24.1696
 22.0512  24.3195
 22.1318  24.2635
 22.2123  24.4183
 22.2928  24.4306
 22.3733  24.453
 22.4538  24.8163
 22.5343  24.7831
 22.6148  24.9916
 22.6953  25.1459
 22.7758  25.2519
 22.8563  25.6325
 22.9367  26.0597
 22.9943  26.5612