File: test-data-xrd/xrd-map-34-ID-E/Data_0006.chi
F:\20151113_APS_34IDE\\Brian\Particle1\OCV\Data_0006.tif
2-Theta Angle (Degrees)
Intensity
       2000
 0.07475  0.0000000E+00
 0.15525  0.0000000E+00
 0.23575  0.0000000E+00
 0.31625  0.0000000E+00
 0.39675  0.0000000E+00
 0.47725  0.0000000E+00
 0.55775  0.0000000E+00
 0.63825  0.0000000E+00
 0.71875  0.0000000E+00
 0.79925  0.0000000E+00
 0.87975  0.0000000E+00
 0.96025  0.0000000E+00
 1.04075  0.0000000E+00
 1.12125  0.0000000E+00
 1.20175  0.0000000E+00
 1.28225  0.0000000E+00
 1.36275  0.0000000E+00
 1.44325  0.0000000E+00
 1.52375  0.0000000E+00
 1.60425  0.0000000E+00
 1.68475  0.0000000E+00
 1.76525  0.0000000E+00
 1.84575  0.0000000E+00
 1.92625  0.0000000E+00
 2.00675  0.0000000E+00
 2.08725  0.0000000E+00
 2.16775  0.0000000E+00
 2.24825  0.0000000E+00
 2.32875  0.0000000E+00
 2.40925  0.0000000E+00
 2.48975  0.0000000E+00
 2.57025  0.0000000E+00
 2.65075  0.0000000E+00
 2.73125  0.0000000E+00
 2.81175  0.0000000E+00
 2.89225  34.3717
 2.97275  35.9044
 3.05325  35.6951
 3.13375  34.9655
 3.21425  35.0542
 3.29475  35.659
 3.37525  34.7723
 3.45575  34.7361
 3.53625  33.4276
 3.61675  34.032
 3.69725  33.5764
 3.77775  33.5406
 3.85825  32.5411
 3.93875  32.9503
 4.01925  32.9305
 4.09975  32.8512
 4.18025  32.4759
 4.26075  32.4002
 4.34125  32.3241
 4.42175  32.6156
 4.50225  32.538
 4.58275  32.191
 4.66325  33.1278
 4.74375  33.2387
 4.82425  32.8416
 4.90475  32.8178
 4.98525  32.8993
 5.06575  33.5514
 5.14625  33.918
 5.22675  34.0228
 5.30725  33.809
 5.38775  34.6561
 5.46825  34.7402
 5.54875  34.913
 5.62925  35.0511
 5.70975  35.4256
 5.79025  35.6119
 5.87075  36.2745
 5.95125  39.1193
 6.03175  38.68
 6.11225  36.8795
 6.19275  37.2126
 6.27325  37.859
 6.35375  37.7547
 6.43425  38.5838
 6.51475  39.2461
 6.59525  39.5934
 6.67575  40.2606
 6.75625  40.932
 6.83675  41.3514
 6.91725  41.8728
 6.99775  42.6487
 7.07825  42.8708
 7.15875  43.5823
 7.23925  43.833
 7.31975  44.0398
 7.40025  44.2073
 7.48075  44.5916
 7.56125  44.554
 7.64175  44.6351
 7.72225  44.381
 7.80275  44.4451
 7.88325  44.3459
 7.96375  44.0881
 8.04425  43.7803
 8.12475  43.1752
 8.20525  42.2391
 8.28575  41.287
 8.36625  40.4562
 8.44675  39.0807
 8.52725  38.0685
 8.60775  36.6946
 8.68825  35.5249
 8.76875  34.1731
 8.84925  33.5915
 8.92975  32.1932
 9.01025  31.1456
 9.09075  30.08
 9.17125  29.2734
 9.25175  28.386
 9.33225  27.6924
 9.41275  27.3889
 9.49325  26.7299
 9.57375  26.4437
 9.65425  26.0502
 9.73475  25.4231
 9.81525  25.2697
 9.89575  24.8514
 9.97625  24.7237
 10.0567  24.4582
 10.1373  24.2879
 10.2178  24.0893
 10.2982  23.9267
 10.3788  23.6303
 10.4593  23.5983
 10.5397  23.4208
 10.6203  23.2471
 10.7007  23.0647
 10.7813  23.1963
 10.8618  22.949
 10.9422  22.855
 11.0228  22.6767
 11.1033  22.653
 11.1837  22.5999
 11.2643  22.5559
 11.3447  22.5535
 11.4253  23.1343
 11.5058  23.2087
 11.5862  26.0838
 11.6668  22.9782
 11.7473  22.7142
 11.8277  22.735
 11.9083  22.7042
 11.9887  23.0565
 12.0693  23.3733
 12.1498  23.5471
 12.2302  22.8128
 12.3108  22.8427
 12.3913  22.7556
 12.4718  22.8262
 12.5523  22.8335
 12.6328  23.0498
 12.7133  22.9715
 12.7938  23.1578
 12.8742  23.568
 12.9548  23.8498
 13.0353  24.3389
 13.1158  25.0906
 13.1963  25.8139
 13.2768  26.7351
 13.3573  27.8971
 13.4378  28.6957
 13.5183  29.7244
 13.5988  29.9832
 13.6793  29.9783
 13.7598  29.5232
 13.8403  29.2784
 13.9208  31.8739
 14.0013  30.1247
 14.0818  27.6311
 14.1623  27.1666
 14.2428  26.6778
 14.3233  26.3455
 14.4038  26.1906
 14.4843  25.9933
 14.5648  25.6351
 14.6453  25.5962
 14.7258  25.2144
 14.8063  25.3395
 14.8868  25.3454
 14.9673  25.0837
 15.0478  24.9658
 15.1283  24.9879
 15.2088  25.7294
 15.2892  24.9172
 15.3698  24.781
 15.4503  24.6541
 15.5308  24.7278
 15.6113  24.6743
 15.6918  24.6232
 15.7723  24.7966
 15.8528  24.6125
 15.9332  24.7738
 16.0138  24.734
 16.0943  24.7025
 16.1748  25.0663
 16.2553  26.0012
 16.3358  24.9734
 16.4163  24.8486
 16.4967  24.8414
 16.5773  24.6293
 16.6578  24.7549
 16.7383  24.7857
 16.8188  24.5408
 16.8992  24.3446
 16.9798  24.4554
 17.0603  24.3993
 17.1408  24.374
 17.2213  24.3804
 17.3017  24.2936
 17.3823  24.2234
 17.4628  24.1164
 17.5433  24.0389
 17.6238  24.0341
 17.7042  23.996
 17.7847  23.8673
 17.8653  23.9931
 17.9458  24.0502
 18.0263  24.3259
 18.1068  24.7882
 18.1872  23.9004
 18.2678  23.8144
 18.3483  23.6596
 18.4288  23.7443
 18.5093  23.6883
 18.5897  23.7751
 18.6703  23.6363
 18.7508  23.6278
 18.8313  23.5179
 18.9118  23.586
 18.9922  23.3972
 19.0727  23.4644
 19.1533  23.6425
 19.2338  23.5946
 19.3143  23.6502
 19.3948  23.6874
 19.4752  23.671
 19.5558  23.6305
 19.6363  23.879
 19.7168  26.0727
 19.7973  24.5522
 19.8777  25.3873
 19.9582  24.1037
 20.0388  23.8066
 20.1193  23.8142
 20.1998  23.9278
 20.2803  23.93
 20.3607  23.798
 20.4413  23.9519
 20.5218  23.8537
 20.6023  23.9143
 20.6828  23.9998
 20.7632  24.9004
 20.8438  24.0017
 20.9243  24.05
 21.0048  23.9876
 21.0853  23.9647
 21.1658  23.9121
 21.2462  23.9818
 21.3268  23.9954
 21.4073  24.0491
 21.4878  24.0174
 21.5683  24.1559
 21.6487  24.1616
 21.7293  24.274
 21.8098  24.2394
 21.8903  24.1954
 21.9708  24.3656
 22.0512  24.3126
 22.1318  24.464
 22.2123  24.4035
 22.2928  24.68
 22.3733  24.6667
 22.4538  24.6446
 22.5343  24.9464
 22.6148  24.9762
 22.6953  25.0951
 22.7758  25.2994
 22.8563  25.5924
 22.9367  26.0539
 22.9943  26.4609