File: test-data-xrd/xrd-map-34-ID-E/Data_0090.chi
F:\20151113_APS_34IDE\\Brian\Particle1\OCV\Data_0090.tif
2-Theta Angle (Degrees)
Intensity
       2000
 0.07475  0.0000000E+00
 0.15525  0.0000000E+00
 0.23575  0.0000000E+00
 0.31625  0.0000000E+00
 0.39675  0.0000000E+00
 0.47725  0.0000000E+00
 0.55775  0.0000000E+00
 0.63825  0.0000000E+00
 0.71875  0.0000000E+00
 0.79925  0.0000000E+00
 0.87975  0.0000000E+00
 0.96025  0.0000000E+00
 1.04075  0.0000000E+00
 1.12125  0.0000000E+00
 1.20175  0.0000000E+00
 1.28225  0.0000000E+00
 1.36275  0.0000000E+00
 1.44325  0.0000000E+00
 1.52375  0.0000000E+00
 1.60425  0.0000000E+00
 1.68475  0.0000000E+00
 1.76525  0.0000000E+00
 1.84575  0.0000000E+00
 1.92625  0.0000000E+00
 2.00675  0.0000000E+00
 2.08725  0.0000000E+00
 2.16775  0.0000000E+00
 2.24825  0.0000000E+00
 2.32875  0.0000000E+00
 2.40925  0.0000000E+00
 2.48975  0.0000000E+00
 2.57025  0.0000000E+00
 2.65075  0.0000000E+00
 2.73125  0.0000000E+00
 2.81175  0.0000000E+00
 2.89225  34.4287
 2.97275  35.0314
 3.05325  36.6285
 3.13375  36.0281
 3.21425  36.0278
 3.29475  35.982
 3.37525  35.4102
 3.45575  34.8507
 3.53625  33.4063
 3.61675  33.3769
 3.69725  33.5994
 3.77775  33.2718
 3.85825  33.3826
 3.93875  32.6753
 4.01925  33.0408
 4.09975  32.3956
 4.18025  32.2434
 4.26075  32.7534
 4.34125  33.1814
 4.42175  32.8915
 4.50225  32.6244
 4.58275  32.6957
 4.66325  33.1519
 4.74375  33.0102
 4.82425  32.8905
 4.90475  33.2799
 4.98525  33.0538
 5.06575  33.8065
 5.14625  33.8451
 5.22675  34.4881
 5.30725  34.167
 5.38775  35.0775
 5.46825  35.2318
 5.54875  35.2423
 5.62925  35.8945
 5.70975  36.0984
 5.79025  36.6031
 5.87075  37.388
 5.95125  66.1359
 6.03175  45.1526
 6.11225  38.006
 6.19275  37.565
 6.27325  38.2093
 6.35375  38.5127
 6.43425  38.7157
 6.51475  39.9443
 6.59525  40.0199
 6.67575  40.7081
 6.75625  41.1693
 6.83675  42.1512
 6.91725  42.5202
 6.99775  42.4298
 7.07825  43.2207
 7.15875  43.8405
 7.23925  43.9219
 7.31975  44.6241
 7.40025  44.8103
 7.48075  44.8332
 7.56125  44.8649
 7.64175  44.778
 7.72225  44.8389
 7.80275  44.7555
 7.88325  44.3809
 7.96375  43.9653
 8.04425  43.8369
 8.12475  43.0595
 8.20525  42.194
 8.28575  41.0939
 8.36625  40.3098
 8.44675  38.9961
 8.52725  38.0707
 8.60775  36.5932
 8.68825  35.3541
 8.76875  34.0553
 8.84925  32.9052
 8.92975  31.6849
 9.01025  30.7888
 9.09075  29.8596
 9.17125  28.9417
 9.25175  28.1348
 9.33225  27.5325
 9.41275  27.0098
 9.49325  26.541
 9.57375  26.0977
 9.65425  25.6584
 9.73475  25.2803
 9.81525  25.0889
 9.89575  24.6599
 9.97625  24.4663
 10.0567  24.3348
 10.1373  24.1598
 10.2178  23.7614
 10.2982  23.5665
 10.3788  23.5912
 10.4593  23.2921
 10.5397  23.4628
 10.6203  23.104
 10.7007  23.2273
 10.7813  23.0443
 10.8618  23.0177
 10.9422  22.8539
 11.0228  22.6593
 11.1033  22.5793
 11.1837  22.5269
 11.2643  22.6521
 11.3447  22.5787
 11.4253  22.9883
 11.5058  23.7257
 11.5862  34.4482
 11.6668  26.3736
 11.7473  23.0543
 11.8277  22.8176
 11.9083  22.7857
 11.9887  23.5811
 12.0693  24.5118
 12.1498  25.6731
 12.2302  22.6773
 12.3108  22.7478
 12.3913  22.7588
 12.4718  22.5999
 12.5523  22.6694
 12.6328  23.0439
 12.7133  23.0944
 12.7938  23.1376
 12.8742  23.4449
 12.9548  23.9461
 13.0353  24.2778
 13.1158  25.1702
 13.1963  25.733
 13.2768  26.66
 13.3573  27.8653
 13.4378  28.6893
 13.5183  29.4628
 13.5988  30.041
 13.6793  30.0009
 13.7598  29.7487
 13.8403  29.9329
 13.9208  37.2841
 14.0013  36.4437
 14.0818  28.3136
 14.1623  27.5098
 14.2428  26.9488
 14.3233  26.3535
 14.4038  25.9705
 14.4843  25.7601
 14.5648  25.7373
 14.6453  25.4129
 14.7258  25.2497
 14.8063  25.1427
 14.8868  25.1016
 14.9673  25.0287
 15.0478  24.9375
 15.1283  25.4264
 15.2088  28.7566
 15.2892  25.0973
 15.3698  24.7367
 15.4503  24.6684
 15.5308  24.9439
 15.6113  24.7243
 15.6918  24.7338
 15.7723  24.6768
 15.8528  24.7075
 15.9332  24.6364
 16.0138  24.8364
 16.0943  24.9375
 16.1748  25.1479
 16.2553  27.7249
 16.3358  25.2067
 16.4163  24.9659
 16.4967  24.8535
 16.5773  24.7606
 16.6578  24.6044
 16.7383  24.6665
 16.8188  24.4547
 16.8992  24.6465
 16.9798  24.4026
 17.0603  24.5085
 17.1408  24.3797
 17.2213  24.5219
 17.3017  24.3019
 17.3823  24.2489
 17.4628  24.1366
 17.5433  24.05
 17.6238  23.9522
 17.7042  24.0105
 17.7847  24.1498
 17.8653  24.0065
 17.9458  24.2232
 18.0263  29.1317
 18.1068  28.2372
 18.1872  24.6872
 18.2678  23.8478
 18.3483  23.734
 18.4288  23.8408
 18.5093  23.5669
 18.5897  23.5846
 18.6703  23.4931
 18.7508  23.5603
 18.8313  23.5579
 18.9118  23.6002
 18.9922  23.4754
 19.0727  23.6468
 19.1533  23.6247
 19.2338  23.7379
 19.3143  23.7297
 19.3948  23.7454
 19.4752  23.8496
 19.5558  23.9823
 19.6363  24.6796
 19.7168  32.2949
 19.7973  27.4963
 19.8777  29.3582
 19.9582  24.4559
 20.0388  23.9497
 20.1193  24.0117
 20.1998  23.8518
 20.2803  23.8518
 20.3607  23.9595
 20.4413  24.0892
 20.5218  24.2091
 20.6023  24.6197
 20.6828  26.4436
 20.7632  43.1015
 20.8438  26.2521
 20.9243  24.7713
 21.0048  24.3204
 21.0853  24.1969
 21.1658  24.0184
 21.2462  23.9725
 21.3268  24.0359
 21.4073  24.0582
 21.4878  24.0774
 21.5683  24.1651
 21.6487  24.2477
 21.7293  24.2893
 21.8098  24.2162
 21.8903  24.2413
 21.9708  24.289
 22.0512  24.3231
 22.1318  24.4678
 22.2123  24.4188
 22.2928  24.4418
 22.3733  24.5896
 22.4538  24.7106
 22.5343  24.8178
 22.6148  25.0031
 22.6953  25.2116
 22.7758  25.3367
 22.8563  25.6633
 22.9367  25.9757
 22.9943  26.3547