File: test-data-xrd/xrd-map-34-ID-E/Data_0109.chi
F:\20151113_APS_34IDE\\Brian\Particle1\OCV\Data_0109.tif
2-Theta Angle (Degrees)
Intensity
       2000
 0.07475  0.0000000E+00
 0.15525  0.0000000E+00
 0.23575  0.0000000E+00
 0.31625  0.0000000E+00
 0.39675  0.0000000E+00
 0.47725  0.0000000E+00
 0.55775  0.0000000E+00
 0.63825  0.0000000E+00
 0.71875  0.0000000E+00
 0.79925  0.0000000E+00
 0.87975  0.0000000E+00
 0.96025  0.0000000E+00
 1.04075  0.0000000E+00
 1.12125  0.0000000E+00
 1.20175  0.0000000E+00
 1.28225  0.0000000E+00
 1.36275  0.0000000E+00
 1.44325  0.0000000E+00
 1.52375  0.0000000E+00
 1.60425  0.0000000E+00
 1.68475  0.0000000E+00
 1.76525  0.0000000E+00
 1.84575  0.0000000E+00
 1.92625  0.0000000E+00
 2.00675  0.0000000E+00
 2.08725  0.0000000E+00
 2.16775  0.0000000E+00
 2.24825  0.0000000E+00
 2.32875  0.0000000E+00
 2.40925  0.0000000E+00
 2.48975  0.0000000E+00
 2.57025  0.0000000E+00
 2.65075  0.0000000E+00
 2.73125  0.0000000E+00
 2.81175  0.0000000E+00
 2.89225  35.0144
 2.97275  35.6959
 3.05325  36.1888
 3.13375  35.2834
 3.21425  35.0404
 3.29475  34.8167
 3.37525  34.1509
 3.45575  35.3393
 3.53625  33.9296
 3.61675  33.2761
 3.69725  33.4634
 3.77775  32.8282
 3.85825  32.5559
 3.93875  32.7401
 4.01925  32.7488
 4.09975  32.2848
 4.18025  31.7476
 4.26075  31.8472
 4.34125  31.9265
 4.42175  32.2482
 4.50225  32.4222
 4.58275  32.3871
 4.66325  32.3997
 4.74375  32.8144
 4.82425  32.5991
 4.90475  32.777
 4.98525  32.6949
 5.06575  33.3541
 5.14625  33.7063
 5.22675  33.8092
 5.30725  33.785
 5.38775  34.4638
 5.46825  34.3607
 5.54875  34.9833
 5.62925  34.9687
 5.70975  35.0428
 5.79025  35.2598
 5.87075  35.6594
 5.95125  36.9805
 6.03175  37.0178
 6.11225  36.6065
 6.19275  36.7515
 6.27325  37.3399
 6.35375  37.8835
 6.43425  38.2931
 6.51475  38.883
 6.59525  39.2261
 6.67575  40.0035
 6.75625  40.3394
 6.83675  41.3416
 6.91725  41.723
 6.99775  42.105
 7.07825  42.3514
 7.15875  42.8345
 7.23925  43.1971
 7.31975  43.5769
 7.40025  43.9104
 7.48075  44.2947
 7.56125  44.0557
 7.64175  44.0186
 7.72225  44.0998
 7.80275  44.0493
 7.88325  43.6418
 7.96375  43.6131
 8.04425  42.9442
 8.12475  42.5539
 8.20525  41.8192
 8.28575  40.7563
 8.36625  39.8573
 8.44675  38.8844
 8.52725  37.3343
 8.60775  36.0867
 8.68825  35.1247
 8.76875  33.74
 8.84925  32.6922
 8.92975  31.4084
 9.01025  30.4087
 9.09075  29.426
 9.17125  28.7654
 9.25175  28.0694
 9.33225  27.3506
 9.41275  26.7652
 9.49325  26.137
 9.57375  25.6969
 9.65425  25.1445
 9.73475  24.9861
 9.81525  24.728
 9.89575  24.3924
 9.97625  24.0417
 10.0567  23.6956
 10.1373  23.5092
 10.2178  23.4847
 10.2982  23.3422
 10.3788  23.0547
 10.4593  22.9335
 10.5397  22.8827
 10.6203  22.762
 10.7007  22.6608
 10.7813  22.5878
 10.8618  22.4699
 10.9422  22.3321
 11.0228  22.3238
 11.1033  22.2861
 11.1837  22.1243
 11.2643  22.1006
 11.3447  22.1167
 11.4253  22.3141
 11.5058  22.0212
 11.5862  23.2019
 11.6668  22.1698
 11.7473  22.0237
 11.8277  22.0181
 11.9083  22.0109
 11.9887  22.2496
 12.0693  22.3991
 12.1498  22.2685
 12.2302  22.0504
 12.3108  22.0304
 12.3913  22.1882
 12.4718  22.3916
 12.5523  22.3435
 12.6328  22.5952
 12.7133  22.7534
 12.7938  22.7187
 12.8742  23.0336
 12.9548  23.3481
 13.0353  23.7257
 13.1158  24.5771
 13.1963  25.2911
 13.2768  26.2359
 13.3573  27.2511
 13.4378  28.2967
 13.5183  28.975
 13.5988  29.3709
 13.6793  29.2667
 13.7598  28.9566
 13.8403  28.5
 13.9208  28.903
 14.0013  28.2793
 14.0818  27.0701
 14.1623  26.5728
 14.2428  26.0499
 14.3233  25.6152
 14.4038  25.4786
 14.4843  25.1693
 14.5648  25.294
 14.6453  24.9818
 14.7258  24.784
 14.8063  24.638
 14.8868  24.4153
 14.9673  24.2906
 15.0478  24.4655
 15.1283  24.2995
 15.2088  24.5611
 15.2892  24.1604
 15.3698  24.2775
 15.4503  24.1302
 15.5308  24.0615
 15.6113  24.167
 15.6918  24.1569
 15.7723  24.2425
 15.8528  24.3226
 15.9332  24.2973
 16.0138  24.2483
 16.0943  24.4496
 16.1748  24.5422
 16.2553  24.864
 16.3358  24.6456
 16.4163  24.1562
 16.4967  24.3128
 16.5773  24.2267
 16.6578  24.2196
 16.7383  24.1938
 16.8188  23.9801
 16.8992  23.9473
 16.9798  23.9811
 17.0603  23.953
 17.1408  23.7786
 17.2213  23.72
 17.3017  23.7155
 17.3823  23.6604
 17.4628  23.6938
 17.5433  23.5318
 17.6238  23.5827
 17.7042  23.4924
 17.7847  23.5231
 17.8653  23.3829
 17.9458  23.2949
 18.0263  23.3663
 18.1068  23.3365
 18.1872  23.186
 18.2678  23.1209
 18.3483  23.0798
 18.4288  23.2031
 18.5093  23.1591
 18.5897  23.1312
 18.6703  23.0397
 18.7508  22.9876
 18.8313  23.1161
 18.9118  23.2489
 18.9922  22.975
 19.0727  23.1489
 19.1533  23.1657
 19.2338  23.2137
 19.3143  23.1301
 19.3948  23.1974
 19.4752  23.1903
 19.5558  23.2671
 19.6363  23.254
 19.7168  23.6587
 19.7973  23.5077
 19.8777  23.7233
 19.9582  23.2445
 20.0388  23.3449
 20.1193  23.3576
 20.1998  23.1971
 20.2803  23.3497
 20.3607  23.2574
 20.4413  23.3658
 20.5218  23.2531
 20.6023  23.3541
 20.6828  23.5262
 20.7632  23.684
 20.8438  23.4604
 20.9243  23.4074
 21.0048  23.4388
 21.0853  23.4703
 21.1658  23.4364
 21.2462  23.5373
 21.3268  23.4737
 21.4073  23.443
 21.4878  23.5899
 21.5683  23.607
 21.6487  23.7266
 21.7293  23.7351
 21.8098  23.6988
 21.8903  23.8583
 21.9708  23.8198
 22.0512  23.8478
 22.1318  23.9372
 22.2123  23.9042
 22.2928  24.0281
 22.3733  24.1489
 22.4538  24.167
 22.5343  24.3114
 22.6148  24.5178
 22.6953  24.6786
 22.7758  24.8398
 22.8563  25.1827
 22.9367  25.4931
 22.9943  25.6855