File: test-data-xrd/xrd-map-34-ID-E/Data_0046.chi
F:\20151113_APS_34IDE\\Brian\Particle1\OCV\Data_0046.tif
2-Theta Angle (Degrees)
Intensity
       2000
 0.07475  0.0000000E+00
 0.15525  0.0000000E+00
 0.23575  0.0000000E+00
 0.31625  0.0000000E+00
 0.39675  0.0000000E+00
 0.47725  0.0000000E+00
 0.55775  0.0000000E+00
 0.63825  0.0000000E+00
 0.71875  0.0000000E+00
 0.79925  0.0000000E+00
 0.87975  0.0000000E+00
 0.96025  0.0000000E+00
 1.04075  0.0000000E+00
 1.12125  0.0000000E+00
 1.20175  0.0000000E+00
 1.28225  0.0000000E+00
 1.36275  0.0000000E+00
 1.44325  0.0000000E+00
 1.52375  0.0000000E+00
 1.60425  0.0000000E+00
 1.68475  0.0000000E+00
 1.76525  0.0000000E+00
 1.84575  0.0000000E+00
 1.92625  0.0000000E+00
 2.00675  0.0000000E+00
 2.08725  0.0000000E+00
 2.16775  0.0000000E+00
 2.24825  0.0000000E+00
 2.32875  0.0000000E+00
 2.40925  0.0000000E+00
 2.48975  0.0000000E+00
 2.57025  0.0000000E+00
 2.65075  0.0000000E+00
 2.73125  0.0000000E+00
 2.81175  0.0000000E+00
 2.89225  35.4666
 2.97275  34.6286
 3.05325  35.1361
 3.13375  35.4295
 3.21425  35.5328
 3.29475  33.9635
 3.37525  34.3725
 3.45575  35.049
 3.53625  34.4798
 3.61675  33.5365
 3.69725  33.5437
 3.77775  33.0445
 3.85825  33.1509
 3.93875  32.5978
 4.01925  32.4883
 4.09975  32.2916
 4.18025  32.4991
 4.26075  32.5888
 4.34125  32.051
 4.42175  32.3602
 4.50225  32.1866
 4.58275  32.8009
 4.66325  32.7917
 4.74375  32.6292
 4.82425  32.7247
 4.90475  32.8219
 4.98525  32.5334
 5.06575  33.2678
 5.14625  33.607
 5.22675  34.0104
 5.30725  34.0272
 5.38775  34.3772
 5.46825  35.0288
 5.54875  35.1289
 5.62925  35.3388
 5.70975  35.5534
 5.79025  36.2047
 5.87075  37.0324
 5.95125  64.8101
 6.03175  53.0475
 6.11225  38.0468
 6.19275  37.2871
 6.27325  37.5221
 6.35375  37.9683
 6.43425  38.3634
 6.51475  39.4862
 6.59525  39.6404
 6.67575  40.1425
 6.75625  40.8965
 6.83675  41.4765
 6.91725  41.7439
 6.99775  42.5147
 7.07825  42.4678
 7.15875  43.2546
 7.23925  43.4416
 7.31975  43.9093
 7.40025  43.7478
 7.48075  44.0893
 7.56125  44.034
 7.64175  44.2458
 7.72225  44.3661
 7.80275  43.9999
 7.88325  44.0385
 7.96375  44.0117
 8.04425  43.2876
 8.12475  42.7341
 8.20525  41.9373
 8.28575  41.2233
 8.36625  40.221
 8.44675  38.8556
 8.52725  37.6177
 8.60775  36.4663
 8.68825  35.1895
 8.76875  33.6954
 8.84925  32.905
 8.92975  31.6769
 9.01025  30.7754
 9.09075  29.7295
 9.17125  28.8598
 9.25175  28.2452
 9.33225  27.7287
 9.41275  26.9151
 9.49325  26.4551
 9.57375  25.9968
 9.65425  25.629
 9.73475  25.1906
 9.81525  24.9892
 9.89575  24.5013
 9.97625  24.3812
 10.0567  24.2877
 10.1373  24.0087
 10.2178  23.7484
 10.2982  23.5242
 10.3788  23.5799
 10.4593  23.3671
 10.5397  23.1712
 10.6203  23.1145
 10.7007  23.2289
 10.7813  23.0075
 10.8618  22.9663
 10.9422  22.7225
 11.0228  22.7444
 11.1033  22.6547
 11.1837  22.7687
 11.2643  22.8326
 11.3447  22.7422
 11.4253  23.3609
 11.5058  24.258
 11.5862  49.7983
 11.6668  25.1991
 11.7473  23.1267
 11.8277  22.7582
 11.9083  22.8135
 11.9887  24.3378
 12.0693  23.528
 12.1498  23.554
 12.2302  22.5797
 12.3108  22.5376
 12.3913  22.6394
 12.4718  22.6651
 12.5523  22.7992
 12.6328  22.8203
 12.7133  22.9128
 12.7938  23.103
 12.8742  23.5656
 12.9548  23.7884
 13.0353  24.1952
 13.1158  24.9115
 13.1963  25.6875
 13.2768  26.9989
 13.3573  27.677
 13.4378  28.6333
 13.5183  29.5192
 13.5988  30.1037
 13.6793  30.2394
 13.7598  30.2879
 13.8403  31.4165
 13.9208  64.7793
 14.0013  53.5806
 14.0818  29.4215
 14.1623  27.9198
 14.2428  26.9534
 14.3233  26.4899
 14.4038  26.1165
 14.4843  25.8523
 14.5648  25.6042
 14.6453  25.301
 14.7258  25.1936
 14.8063  25.1035
 14.8868  24.9893
 14.9673  24.8751
 15.0478  25.0367
 15.1283  25.3191
 15.2088  28.5224
 15.2892  25.0009
 15.3698  24.7624
 15.4503  24.7002
 15.5308  24.5771
 15.6113  24.5703
 15.6918  24.7468
 15.7723  24.8574
 15.8528  24.7821
 15.9332  24.8374
 16.0138  24.8396
 16.0943  24.7278
 16.1748  25.0878
 16.2553  27.4307
 16.3358  25.2357
 16.4163  24.8644
 16.4967  24.738
 16.5773  24.6151
 16.6578  24.5196
 16.7383  24.3991
 16.8188  24.4749
 16.8992  24.4146
 16.9798  24.4376
 17.0603  24.3274
 17.1408  24.2476
 17.2213  24.1387
 17.3017  24.1746
 17.3823  24.0796
 17.4628  24.0367
 17.5433  23.902
 17.6238  23.9571
 17.7042  23.8728
 17.7847  23.8961
 17.8653  23.9458
 17.9458  23.9389
 18.0263  24.4876
 18.1068  26.5247
 18.1872  24.2377
 18.2678  23.7016
 18.3483  23.7289
 18.4288  23.6814
 18.5093  23.6032
 18.5897  23.6161
 18.6703  23.4331
 18.7508  23.5632
 18.8313  23.5861
 18.9118  23.5328
 18.9922  23.4851
 19.0727  23.5984
 19.1533  23.6046
 19.2338  23.5056
 19.3143  23.5292
 19.3948  23.7382
 19.4752  23.7738
 19.5558  23.9554
 19.6363  25.0788
 19.7168  29.3443
 19.7973  27.413
 19.8777  33.5574
 19.9582  24.7237
 20.0388  24.0325
 20.1193  23.8496
 20.1998  23.8366
 20.2803  23.8363
 20.3607  23.8985
 20.4413  23.8583
 20.5218  23.8808
 20.6023  24.0298
 20.6828  24.5128
 20.7632  29.5535
 20.8438  24.7623
 20.9243  24.2482
 21.0048  24.0205
 21.0853  23.9175
 21.1658  23.8228
 21.2462  24.0234
 21.3268  23.952
 21.4073  24.0264
 21.4878  24.0356
 21.5683  24.0109
 21.6487  24.1975
 21.7293  24.3101
 21.8098  24.2464
 21.8903  24.2882
 21.9708  24.2357
 22.0512  24.3312
 22.1318  24.4634
 22.2123  24.341
 22.2928  24.4831
 22.3733  24.6408
 22.4538  24.6491
 22.5343  24.8279
 22.6148  24.9762
 22.6953  25.1437
 22.7758  25.3794
 22.8563  25.4353
 22.9367  26.1404
 22.9943  26.4045