File: test-data-xrd/xrd-map-34-ID-E/Data_0132.chi
F:\20151113_APS_34IDE\\Brian\Particle1\OCV\Data_0132.tif
2-Theta Angle (Degrees)
Intensity
       2000
 0.07475  0.0000000E+00
 0.15525  0.0000000E+00
 0.23575  0.0000000E+00
 0.31625  0.0000000E+00
 0.39675  0.0000000E+00
 0.47725  0.0000000E+00
 0.55775  0.0000000E+00
 0.63825  0.0000000E+00
 0.71875  0.0000000E+00
 0.79925  0.0000000E+00
 0.87975  0.0000000E+00
 0.96025  0.0000000E+00
 1.04075  0.0000000E+00
 1.12125  0.0000000E+00
 1.20175  0.0000000E+00
 1.28225  0.0000000E+00
 1.36275  0.0000000E+00
 1.44325  0.0000000E+00
 1.52375  0.0000000E+00
 1.60425  0.0000000E+00
 1.68475  0.0000000E+00
 1.76525  0.0000000E+00
 1.84575  0.0000000E+00
 1.92625  0.0000000E+00
 2.00675  0.0000000E+00
 2.08725  0.0000000E+00
 2.16775  0.0000000E+00
 2.24825  0.0000000E+00
 2.32875  0.0000000E+00
 2.40925  0.0000000E+00
 2.48975  0.0000000E+00
 2.57025  0.0000000E+00
 2.65075  0.0000000E+00
 2.73125  0.0000000E+00
 2.81175  0.0000000E+00
 2.89225  33.8495
 2.97275  35.742
 3.05325  36.7224
 3.13375  35.4683
 3.21425  35.133
 3.29475  34.9873
 3.37525  33.721
 3.45575  33.8784
 3.53625  33.9486
 3.61675  33.6247
 3.69725  33.6433
 3.77775  32.9802
 3.85825  32.8397
 3.93875  32.8096
 4.01925  32.8305
 4.09975  32.7394
 4.18025  32.3609
 4.26075  32.3948
 4.34125  32.6393
 4.42175  32.5351
 4.50225  32.8439
 4.58275  32.5259
 4.66325  32.5903
 4.74375  32.9013
 4.82425  32.2476
 4.90475  33.1035
 4.98525  32.8556
 5.06575  33.4224
 5.14625  33.6519
 5.22675  33.9614
 5.30725  34.2983
 5.38775  34.6555
 5.46825  34.4896
 5.54875  34.5085
 5.62925  34.8028
 5.70975  35.2451
 5.79025  35.2716
 5.87075  35.523
 5.95125  36.4712
 6.03175  36.5791
 6.11225  36.5563
 6.19275  36.4837
 6.27325  37.6433
 6.35375  38.1444
 6.43425  38.7305
 6.51475  39.3055
 6.59525  39.7119
 6.67575  40.3934
 6.75625  40.853
 6.83675  41.5057
 6.91725  42.1791
 6.99775  42.3561
 7.07825  43.1808
 7.15875  43.4651
 7.23925  43.8782
 7.31975  43.5425
 7.40025  44.1068
 7.48075  44.3182
 7.56125  44.323
 7.64175  44.5758
 7.72225  44.0469
 7.80275  44.2852
 7.88325  44.204
 7.96375  44.276
 8.04425  43.5029
 8.12475  43.0498
 8.20525  42.0499
 8.28575  40.9812
 8.36625  39.9935
 8.44675  39.0614
 8.52725  37.8768
 8.60775  36.4081
 8.68825  35.2266
 8.76875  34.1142
 8.84925  32.9704
 8.92975  31.7459
 9.01025  30.7875
 9.09075  29.6104
 9.17125  29.115
 9.25175  28.0053
 9.33225  27.4094
 9.41275  27.2193
 9.49325  26.6634
 9.57375  25.8534
 9.65425  25.5595
 9.73475  25.262
 9.81525  24.9335
 9.89575  24.5339
 9.97625  24.2736
 10.0567  24.1249
 10.1373  23.8669
 10.2178  23.7427
 10.2982  23.6237
 10.3788  23.4336
 10.4593  23.4278
 10.5397  23.0653
 10.6203  22.8252
 10.7007  22.9987
 10.7813  22.6978
 10.8618  22.5339
 10.9422  22.549
 11.0228  22.4289
 11.1033  22.5366
 11.1837  22.2917
 11.2643  22.1786
 11.3447  22.419
 11.4253  22.5015
 11.5058  22.2856
 11.5862  22.9754
 11.6668  22.3575
 11.7473  22.2858
 11.8277  22.2159
 11.9083  22.0243
 11.9887  22.2496
 12.0693  22.4803
 12.1498  22.3554
 12.2302  22.2515
 12.3108  22.2489
 12.3913  22.362
 12.4718  22.4292
 12.5523  22.4814
 12.6328  22.6616
 12.7133  22.9799
 12.7938  22.9756
 12.8742  23.2632
 12.9548  23.6307
 13.0353  24.0744
 13.1158  24.6645
 13.1963  25.4654
 13.2768  26.4405
 13.3573  27.4451
 13.4378  28.3682
 13.5183  29.2245
 13.5988  29.3415
 13.6793  29.3826
 13.7598  29.1533
 13.8403  28.5287
 13.9208  28.5871
 14.0013  27.7868
 14.0818  27.3465
 14.1623  26.6747
 14.2428  26.2509
 14.3233  25.9068
 14.4038  25.8447
 14.4843  25.5253
 14.5648  25.3328
 14.6453  25.1453
 14.7258  25.029
 14.8063  24.7951
 14.8868  24.6925
 14.9673  24.8083
 15.0478  24.6228
 15.1283  24.602
 15.2088  24.7273
 15.2892  24.41
 15.3698  24.3287
 15.4503  24.3802
 15.5308  24.3731
 15.6113  24.441
 15.6918  24.5173
 15.7723  24.4646
 15.8528  24.485
 15.9332  24.5366
 16.0138  24.5668
 16.0943  24.5061
 16.1748  24.6378
 16.2553  24.9361
 16.3358  24.7039
 16.4163  24.4748
 16.4967  24.4854
 16.5773  24.3666
 16.6578  24.2484
 16.7383  24.364
 16.8188  24.2332
 16.8992  24.1855
 16.9798  24.1808
 17.0603  23.9949
 17.1408  24.0818
 17.2213  23.9881
 17.3017  23.9314
 17.3823  23.7597
 17.4628  23.7064
 17.5433  23.6837
 17.6238  23.7131
 17.7042  23.6276
 17.7847  23.7143
 17.8653  23.5359
 17.9458  23.4185
 18.0263  23.4682
 18.1068  23.7345
 18.1872  24.2246
 18.2678  23.5507
 18.3483  23.3386
 18.4288  23.3757
 18.5093  23.3713
 18.5897  23.724
 18.6703  23.6585
 18.7508  23.3595
 18.8313  23.2885
 18.9118  23.2725
 18.9922  23.242
 19.0727  23.2387
 19.1533  23.2032
 19.2338  23.2572
 19.3143  23.3822
 19.3948  23.284
 19.4752  23.2401
 19.5558  23.3291
 19.6363  23.2882
 19.7168  23.6571
 19.7973  23.4746
 19.8777  23.6209
 19.9582  23.4533
 20.0388  23.4976
 20.1193  23.4885
 20.1998  23.4172
 20.2803  23.2993
 20.3607  23.6206
 20.4413  23.4623
 20.5218  23.3559
 20.6023  23.6556
 20.6828  23.489
 20.7632  23.8981
 20.8438  23.8474
 20.9243  23.5991
 21.0048  23.5387
 21.0853  23.6067
 21.1658  23.5242
 21.2462  23.7233
 21.3268  23.6579
 21.4073  23.8592
 21.4878  23.7257
 21.5683  23.9217
 21.6487  23.9111
 21.7293  23.9146
 21.8098  23.9536
 21.8903  23.8385
 21.9708  23.9751
 22.0512  24.1235
 22.1318  24.0982
 22.2123  24.1229
 22.2928  24.2482
 22.3733  24.2913
 22.4538  24.3262
 22.5343  24.5138
 22.6148  24.6784
 22.6953  24.8924
 22.7758  24.9876
 22.8563  25.1791
 22.9367  25.6497
 22.9943  26.0164