File: test-data-xrd/xrd-map-34-ID-E/Data_0063.chi
F:\20151113_APS_34IDE\\Brian\Particle1\OCV\Data_0063.tif
2-Theta Angle (Degrees)
Intensity
       2000
 0.07475  0.0000000E+00
 0.15525  0.0000000E+00
 0.23575  0.0000000E+00
 0.31625  0.0000000E+00
 0.39675  0.0000000E+00
 0.47725  0.0000000E+00
 0.55775  0.0000000E+00
 0.63825  0.0000000E+00
 0.71875  0.0000000E+00
 0.79925  0.0000000E+00
 0.87975  0.0000000E+00
 0.96025  0.0000000E+00
 1.04075  0.0000000E+00
 1.12125  0.0000000E+00
 1.20175  0.0000000E+00
 1.28225  0.0000000E+00
 1.36275  0.0000000E+00
 1.44325  0.0000000E+00
 1.52375  0.0000000E+00
 1.60425  0.0000000E+00
 1.68475  0.0000000E+00
 1.76525  0.0000000E+00
 1.84575  0.0000000E+00
 1.92625  0.0000000E+00
 2.00675  0.0000000E+00
 2.08725  0.0000000E+00
 2.16775  0.0000000E+00
 2.24825  0.0000000E+00
 2.32875  0.0000000E+00
 2.40925  0.0000000E+00
 2.48975  0.0000000E+00
 2.57025  0.0000000E+00
 2.65075  0.0000000E+00
 2.73125  0.0000000E+00
 2.81175  0.0000000E+00
 2.89225  35.3192
 2.97275  35.3789
 3.05325  35.3346
 3.13375  35.7318
 3.21425  35.4386
 3.29475  34.0207
 3.37525  34.7656
 3.45575  34.0027
 3.53625  33.5699
 3.61675  32.6953
 3.69725  32.9235
 3.77775  32.4695
 3.85825  32.8596
 3.93875  32.277
 4.01925  32.5477
 4.09975  32.6518
 4.18025  31.9755
 4.26075  31.7829
 4.34125  32.05
 4.42175  31.9151
 4.50225  32.0097
 4.58275  32.7357
 4.66325  32.6861
 4.74375  32.2864
 4.82425  32.695
 4.90475  32.4519
 4.98525  32.7162
 5.06575  32.8201
 5.14625  33.6628
 5.22675  35.4239
 5.30725  34.0748
 5.38775  34.1524
 5.46825  34.2562
 5.54875  34.3549
 5.62925  34.8494
 5.70975  35.312
 5.79025  35.8045
 5.87075  36.1191
 5.95125  40.3615
 6.03175  40.1017
 6.11225  36.6452
 6.19275  36.5076
 6.27325  37.2772
 6.35375  37.7557
 6.43425  38.1348
 6.51475  38.7256
 6.59525  38.9613
 6.67575  39.6372
 6.75625  40.4734
 6.83675  41.0948
 6.91725  41.587
 6.99775  41.8015
 7.07825  42.3601
 7.15875  42.5822
 7.23925  43.0887
 7.31975  43.4735
 7.40025  43.6651
 7.48075  43.6169
 7.56125  44.0399
 7.64175  44.1023
 7.72225  43.9626
 7.80275  44.0907
 7.88325  43.6521
 7.96375  43.0264
 8.04425  42.8059
 8.12475  42.2361
 8.20525  41.4567
 8.28575  40.7679
 8.36625  39.6186
 8.44675  38.6108
 8.52725  37.3914
 8.60775  36.1036
 8.68825  34.9272
 8.76875  33.6017
 8.84925  32.7152
 8.92975  31.6046
 9.01025  30.634
 9.09075  29.7637
 9.17125  28.9996
 9.25175  28.1625
 9.33225  27.4274
 9.41275  26.9214
 9.49325  26.4137
 9.57375  25.8402
 9.65425  25.6099
 9.73475  25.3407
 9.81525  25.0792
 9.89575  24.6273
 9.97625  24.2417
 10.0567  24.194
 10.1373  23.9781
 10.2178  23.7944
 10.2982  23.6275
 10.3788  23.2998
 10.4593  23.2586
 10.5397  23.065
 10.6203  23.081
 10.7007  22.9653
 10.7813  22.7648
 10.8618  22.7797
 10.9422  22.6521
 11.0228  22.487
 11.1033  22.7097
 11.1837  22.502
 11.2643  22.3149
 11.3447  22.4319
 11.4253  22.8951
 11.5058  23.0302
 11.5862  29.0479
 11.6668  24.2478
 11.7473  22.4335
 11.8277  22.4872
 11.9083  22.5683
 11.9887  23.2446
 12.0693  26.0925
 12.1498  24.6134
 12.2302  22.5568
 12.3108  22.6085
 12.3913  22.6379
 12.4718  22.631
 12.5523  22.6171
 12.6328  23.0857
 12.7133  23.0176
 12.7938  23.2117
 12.8742  23.517
 12.9548  23.7447
 13.0353  24.1637
 13.1158  24.8765
 13.1963  25.5539
 13.2768  26.4783
 13.3573  27.5974
 13.4378  28.5239
 13.5183  29.2117
 13.5988  29.7193
 13.6793  29.8556
 13.7598  29.5275
 13.8403  29.5154
 13.9208  35.8646
 14.0013  36.0536
 14.0818  28.0574
 14.1623  27.2421
 14.2428  26.6283
 14.3233  26.1996
 14.4038  26.1133
 14.4843  25.756
 14.5648  25.6342
 14.6453  25.512
 14.7258  25.3229
 14.8063  24.9733
 14.8868  24.8136
 14.9673  24.8141
 15.0478  24.8652
 15.1283  25.2697
 15.2088  27.9655
 15.2892  24.8607
 15.3698  24.6037
 15.4503  24.4826
 15.5308  24.5364
 15.6113  24.5668
 15.6918  24.7003
 15.7723  24.6545
 15.8528  24.457
 15.9332  24.7428
 16.0138  24.599
 16.0943  24.6205
 16.1748  24.7508
 16.2553  25.4421
 16.3358  24.9429
 16.4163  24.5876
 16.4967  24.6404
 16.5773  24.7961
 16.6578  24.464
 16.7383  24.6004
 16.8188  24.6223
 16.8992  24.5044
 16.9798  24.2785
 17.0603  24.3026
 17.1408  24.1827
 17.2213  24.2155
 17.3017  24.0705
 17.3823  23.9937
 17.4628  23.9318
 17.5433  23.9237
 17.6238  24.025
 17.7042  23.858
 17.7847  23.8555
 17.8653  23.8122
 17.9458  24.0666
 18.0263  25.6192
 18.1068  25.4493
 18.1872  24.2295
 18.2678  23.6978
 18.3483  23.7741
 18.4288  23.7912
 18.5093  23.6673
 18.5897  23.6967
 18.6703  23.5137
 18.7508  23.5902
 18.8313  23.6097
 18.9118  23.5542
 18.9922  23.5
 19.0727  23.6043
 19.1533  23.5971
 19.2338  23.6196
 19.3143  23.697
 19.3948  23.8524
 19.4752  23.9652
 19.5558  24.3254
 19.6363  26.2123
 19.7168  35.7039
 19.7973  26.8971
 19.8777  30.7306
 19.9582  24.5833
 20.0388  23.987
 20.1193  23.8874
 20.1998  23.8257
 20.2803  23.84
 20.3607  23.6918
 20.4413  23.8741
 20.5218  23.7406
 20.6023  24.1281
 20.6828  24.4837
 20.7632  26.727
 20.8438  24.3131
 20.9243  24.1531
 21.0048  24.0613
 21.0853  23.9845
 21.1658  23.9839
 21.2462  23.9262
 21.3268  23.9204
 21.4073  23.9357
 21.4878  23.9657
 21.5683  24.0087
 21.6487  24.045
 21.7293  24.2678
 21.8098  24.2103
 21.8903  24.1692
 21.9708  24.3292
 22.0512  24.3832
 22.1318  24.3763
 22.2123  24.3566
 22.2928  24.5021
 22.3733  24.625
 22.4538  24.7334
 22.5343  24.8211
 22.6148  24.9091
 22.6953  25.2328
 22.7758  25.3499
 22.8563  25.7009
 22.9367  26.1503
 22.9943  26.7362