File: test-data-xrd/xrd-map-34-ID-E/Data_0050.chi
F:\20151113_APS_34IDE\\Brian\Particle1\OCV\Data_0050.tif
2-Theta Angle (Degrees)
Intensity
       2000
 0.07475  0.0000000E+00
 0.15525  0.0000000E+00
 0.23575  0.0000000E+00
 0.31625  0.0000000E+00
 0.39675  0.0000000E+00
 0.47725  0.0000000E+00
 0.55775  0.0000000E+00
 0.63825  0.0000000E+00
 0.71875  0.0000000E+00
 0.79925  0.0000000E+00
 0.87975  0.0000000E+00
 0.96025  0.0000000E+00
 1.04075  0.0000000E+00
 1.12125  0.0000000E+00
 1.20175  0.0000000E+00
 1.28225  0.0000000E+00
 1.36275  0.0000000E+00
 1.44325  0.0000000E+00
 1.52375  0.0000000E+00
 1.60425  0.0000000E+00
 1.68475  0.0000000E+00
 1.76525  0.0000000E+00
 1.84575  0.0000000E+00
 1.92625  0.0000000E+00
 2.00675  0.0000000E+00
 2.08725  0.0000000E+00
 2.16775  0.0000000E+00
 2.24825  0.0000000E+00
 2.32875  0.0000000E+00
 2.40925  0.0000000E+00
 2.48975  0.0000000E+00
 2.57025  0.0000000E+00
 2.65075  0.0000000E+00
 2.73125  0.0000000E+00
 2.81175  0.0000000E+00
 2.89225  34.8313
 2.97275  36.6903
 3.05325  35.687
 3.13375  36.7379
 3.21425  35.1041
 3.29475  35.4455
 3.37525  34.2241
 3.45575  34.2463
 3.53625  33.9304
 3.61675  32.781
 3.69725  33.1227
 3.77775  32.6004
 3.85825  33.3452
 3.93875  32.7507
 4.01925  33.0974
 4.09975  32.8081
 4.18025  32.0959
 4.26075  32.242
 4.34125  31.9837
 4.42175  32.4883
 4.50225  32.5364
 4.58275  32.665
 4.66325  32.6702
 4.74375  32.9785
 4.82425  32.6424
 4.90475  32.9261
 4.98525  33.0848
 5.06575  33.3574
 5.14625  33.6649
 5.22675  33.823
 5.30725  34.2522
 5.38775  34.251
 5.46825  34.9923
 5.54875  35.2507
 5.62925  35.4612
 5.70975  35.7427
 5.79025  35.985
 5.87075  37.1303
 5.95125  54.1826
 6.03175  44.8732
 6.11225  37.6131
 6.19275  36.9803
 6.27325  37.7193
 6.35375  38.388
 6.43425  38.5484
 6.51475  39.3914
 6.59525  39.6788
 6.67575  40.1458
 6.75625  40.5465
 6.83675  41.4078
 6.91725  41.7043
 6.99775  42.297
 7.07825  42.6104
 7.15875  43.25
 7.23925  43.6048
 7.31975  43.6034
 7.40025  44.0014
 7.48075  44.2047
 7.56125  44.3201
 7.64175  44.1622
 7.72225  44.3854
 7.80275  44.2761
 7.88325  43.9238
 7.96375  43.8837
 8.04425  43.1717
 8.12475  42.9449
 8.20525  42.1354
 8.28575  41.1364
 8.36625  40.0315
 8.44675  38.757
 8.52725  37.745
 8.60775  36.3576
 8.68825  35.274
 8.76875  34.0546
 8.84925  32.8925
 8.92975  31.9516
 9.01025  30.6569
 9.09075  29.7995
 9.17125  28.9888
 9.25175  28.1947
 9.33225  27.5993
 9.41275  26.9573
 9.49325  26.5976
 9.57375  26.1452
 9.65425  25.7431
 9.73475  25.3071
 9.81525  25.04
 9.89575  24.753
 9.97625  24.5991
 10.0567  24.242
 10.1373  24.0327
 10.2178  23.8804
 10.2982  23.7412
 10.3788  23.6334
 10.4593  23.5006
 10.5397  23.3645
 10.6203  23.2506
 10.7007  22.9836
 10.7813  22.9138
 10.8618  22.8736
 10.9422  22.8815
 11.0228  22.6323
 11.1033  22.5447
 11.1837  22.6575
 11.2643  22.3549
 11.3447  22.5357
 11.4253  23.1535
 11.5058  23.1192
 11.5862  28.3146
 11.6668  24.1085
 11.7473  22.7817
 11.8277  22.8411
 11.9083  23.2425
 11.9887  28.1532
 12.0693  26.225
 12.1498  26.6973
 12.2302  23.0329
 12.3108  22.8096
 12.3913  22.6554
 12.4718  22.7639
 12.5523  22.8179
 12.6328  23.0365
 12.7133  23.0269
 12.7938  23.2597
 12.8742  23.6911
 12.9548  23.9889
 13.0353  24.2762
 13.1158  25.1409
 13.1963  25.7368
 13.2768  26.9751
 13.3573  27.8225
 13.4378  28.6059
 13.5183  29.5161
 13.5988  29.9892
 13.6793  29.9948
 13.7598  29.8593
 13.8403  30.3044
 13.9208  41.2596
 14.0013  43.9292
 14.0818  28.6272
 14.1623  27.2749
 14.2428  26.8162
 14.3233  26.46
 14.4038  26.1216
 14.4843  25.7805
 14.5648  25.7664
 14.6453  25.5997
 14.7258  25.2614
 14.8063  25.2471
 14.8868  24.9831
 14.9673  25.0175
 15.0478  25.0709
 15.1283  25.4591
 15.2088  27.0819
 15.2892  24.9816
 15.3698  24.8155
 15.4503  24.7744
 15.5308  24.7589
 15.6113  24.6142
 15.6918  24.6794
 15.7723  24.7014
 15.8528  24.7253
 15.9332  24.7883
 16.0138  24.9099
 16.0943  24.8356
 16.1748  25.0197
 16.2553  26.0654
 16.3358  25.1421
 16.4163  24.9221
 16.4967  24.9004
 16.5773  24.677
 16.6578  24.7598
 16.7383  24.6518
 16.8188  24.6422
 16.8992  24.5864
 16.9798  24.5303
 17.0603  24.3827
 17.1408  24.5683
 17.2213  24.4219
 17.3017  24.0953
 17.3823  24.1801
 17.4628  24.1148
 17.5433  24.0906
 17.6238  24.014
 17.7042  24.0326
 17.7847  24.013
 17.8653  23.8571
 17.9458  24.1168
 18.0263  24.9415
 18.1068  26.0683
 18.1872  24.2058
 18.2678  23.5954
 18.3483  23.6828
 18.4288  23.8131
 18.5093  23.6539
 18.5897  23.8328
 18.6703  23.651
 18.7508  23.7267
 18.8313  23.6665
 18.9118  23.772
 18.9922  23.6448
 19.0727  23.6909
 19.1533  23.6273
 19.2338  23.6787
 19.3143  23.6997
 19.3948  23.7331
 19.4752  23.8781
 19.5558  23.9977
 19.6363  24.417
 19.7168  27.8374
 19.7973  25.8251
 19.8777  27.9893
 19.9582  24.3549
 20.0388  23.9381
 20.1193  23.8821
 20.1998  23.9687
 20.2803  23.9877
 20.3607  23.9809
 20.4413  23.9756
 20.5218  23.9073
 20.6023  24.164
 20.6828  24.4431
 20.7632  27.6624
 20.8438  25.1489
 20.9243  24.1977
 21.0048  24.1482
 21.0853  24.0485
 21.1658  23.8813
 21.2462  24.0417
 21.3268  24.0343
 21.4073  23.9395
 21.4878  24.1245
 21.5683  24.1783
 21.6487  24.2938
 21.7293  24.3955
 21.8098  24.348
 21.8903  24.2502
 21.9708  24.392
 22.0512  24.5179
 22.1318  24.5517
 22.2123  24.6199
 22.2928  24.6632
 22.3733  24.7136
 22.4538  24.8275
 22.5343  24.9554
 22.6148  24.9992
 22.6953  25.3561
 22.7758  25.4125
 22.8563  25.6687
 22.9367  26.2007
 22.9943  26.5888