File: test-data-xrd/xrd-map-34-ID-E/Data_0101.chi
F:\20151113_APS_34IDE\\Brian\Particle1\OCV\Data_0101.tif
2-Theta Angle (Degrees)
Intensity
       2000
 0.07475  0.0000000E+00
 0.15525  0.0000000E+00
 0.23575  0.0000000E+00
 0.31625  0.0000000E+00
 0.39675  0.0000000E+00
 0.47725  0.0000000E+00
 0.55775  0.0000000E+00
 0.63825  0.0000000E+00
 0.71875  0.0000000E+00
 0.79925  0.0000000E+00
 0.87975  0.0000000E+00
 0.96025  0.0000000E+00
 1.04075  0.0000000E+00
 1.12125  0.0000000E+00
 1.20175  0.0000000E+00
 1.28225  0.0000000E+00
 1.36275  0.0000000E+00
 1.44325  0.0000000E+00
 1.52375  0.0000000E+00
 1.60425  0.0000000E+00
 1.68475  0.0000000E+00
 1.76525  0.0000000E+00
 1.84575  0.0000000E+00
 1.92625  0.0000000E+00
 2.00675  0.0000000E+00
 2.08725  0.0000000E+00
 2.16775  0.0000000E+00
 2.24825  0.0000000E+00
 2.32875  0.0000000E+00
 2.40925  0.0000000E+00
 2.48975  0.0000000E+00
 2.57025  0.0000000E+00
 2.65075  0.0000000E+00
 2.73125  0.0000000E+00
 2.81175  0.0000000E+00
 2.89225  34.6291
 2.97275  36.125
 3.05325  34.9784
 3.13375  35.9996
 3.21425  36.0663
 3.29475  36.1029
 3.37525  35.546
 3.45575  34.7359
 3.53625  35.1546
 3.61675  32.6917
 3.69725  32.667
 3.77775  32.9803
 3.85825  32.9904
 3.93875  33.0232
 4.01925  32.7502
 4.09975  32.3408
 4.18025  32.5384
 4.26075  32.932
 4.34125  32.3221
 4.42175  32.5098
 4.50225  32.9159
 4.58275  32.8759
 4.66325  32.9206
 4.74375  32.6474
 4.82425  32.7581
 4.90475  32.7066
 4.98525  32.9399
 5.06575  33.45
 5.14625  33.8102
 5.22675  33.9932
 5.30725  34.2956
 5.38775  34.3549
 5.46825  34.6699
 5.54875  34.9402
 5.62925  35.0918
 5.70975  35.6994
 5.79025  36.0217
 5.87075  36.6102
 5.95125  47.5288
 6.03175  44.3148
 6.11225  37.223
 6.19275  37.5678
 6.27325  38.1581
 6.35375  38.4377
 6.43425  38.9799
 6.51475  39.358
 6.59525  39.939
 6.67575  40.6205
 6.75625  40.9856
 6.83675  41.7658
 6.91725  42.5501
 6.99775  42.7208
 7.07825  43.1181
 7.15875  43.568
 7.23925  43.7353
 7.31975  43.8127
 7.40025  44.5752
 7.48075  44.6169
 7.56125  44.5968
 7.64175  44.5936
 7.72225  44.8149
 7.80275  44.5382
 7.88325  44.3238
 7.96375  43.8596
 8.04425  43.4198
 8.12475  43.2765
 8.20525  42.2698
 8.28575  41.3217
 8.36625  40.3472
 8.44675  39.3356
 8.52725  37.9467
 8.60775  36.4276
 8.68825  35.354
 8.76875  34.2899
 8.84925  33.0049
 8.92975  31.8253
 9.01025  30.6309
 9.09075  30.0006
 9.17125  29.0277
 9.25175  28.4028
 9.33225  27.5084
 9.41275  27.0443
 9.49325  26.4929
 9.57375  26.1793
 9.65425  25.7817
 9.73475  25.3392
 9.81525  25.0771
 9.89575  24.9181
 9.97625  24.5826
 10.0567  24.2443
 10.1373  24.1333
 10.2178  23.823
 10.2982  23.7903
 10.3788  23.58
 10.4593  23.3637
 10.5397  23.3748
 10.6203  23.3436
 10.7007  23.0413
 10.7813  22.8603
 10.8618  22.7516
 10.9422  22.7981
 11.0228  22.6619
 11.1033  22.6439
 11.1837  22.7294
 11.2643  22.6991
 11.3447  22.6654
 11.4253  22.8041
 11.5058  23.4248
 11.5862  32.123
 11.6668  24.1775
 11.7473  22.6113
 11.8277  22.5942
 11.9083  22.673
 11.9887  23.808
 12.0693  24.0313
 12.1498  23.9193
 12.2302  22.6337
 12.3108  22.7135
 12.3913  22.6861
 12.4718  22.7891
 12.5523  22.9134
 12.6328  22.8739
 12.7133  23.0942
 12.7938  23.1852
 12.8742  23.5609
 12.9548  23.9835
 13.0353  24.2123
 13.1158  25.0786
 13.1963  25.6912
 13.2768  26.8622
 13.3573  27.9096
 13.4378  28.8043
 13.5183  29.5208
 13.5988  29.8743
 13.6793  30.1793
 13.7598  29.8415
 13.8403  30.3904
 13.9208  44.7873
 14.0013  43.4581
 14.0818  28.8569
 14.1623  27.6181
 14.2428  26.9272
 14.3233  26.4661
 14.4038  26.28
 14.4843  25.789
 14.5648  25.6389
 14.6453  25.5217
 14.7258  25.3937
 14.8063  25.3664
 14.8868  25.1556
 14.9673  25.0592
 15.0478  25.0078
 15.1283  25.3455
 15.2088  27.0127
 15.2892  24.886
 15.3698  24.7625
 15.4503  24.7504
 15.5308  24.6603
 15.6113  24.4486
 15.6918  24.734
 15.7723  24.8108
 15.8528  24.7736
 15.9332  24.7733
 16.0138  24.8384
 16.0943  24.8861
 16.1748  25.1423
 16.2553  27.7893
 16.3358  25.286
 16.4163  24.9688
 16.4967  24.9198
 16.5773  24.7409
 16.6578  24.6481
 16.7383  24.8142
 16.8188  24.5371
 16.8992  24.508
 16.9798  24.3376
 17.0603  24.3723
 17.1408  24.4187
 17.2213  24.4114
 17.3017  24.268
 17.3823  24.1969
 17.4628  24.122
 17.5433  24.0479
 17.6238  24.0725
 17.7042  23.9717
 17.7847  23.9195
 17.8653  24.0033
 17.9458  24.0702
 18.0263  25.4161
 18.1068  26.1448
 18.1872  24.2441
 18.2678  23.7962
 18.3483  23.7782
 18.4288  23.7371
 18.5093  23.5154
 18.5897  23.8082
 18.6703  23.6845
 18.7508  23.6824
 18.8313  23.7129
 18.9118  23.6073
 18.9922  23.6436
 19.0727  23.648
 19.1533  23.776
 19.2338  23.5362
 19.3143  23.7117
 19.3948  23.7802
 19.4752  23.9332
 19.5558  23.8718
 19.6363  24.5457
 19.7168  28.7478
 19.7973  27.168
 19.8777  30.5883
 19.9582  24.6145
 20.0388  23.9949
 20.1193  24.0309
 20.1998  23.9752
 20.2803  23.8937
 20.3607  23.8085
 20.4413  23.9079
 20.5218  23.8768
 20.6023  24.2079
 20.6828  24.822
 20.7632  31.8672
 20.8438  25.1315
 20.9243  24.3059
 21.0048  24.1652
 21.0853  24.0903
 21.1658  23.9007
 21.2462  23.9795
 21.3268  23.9808
 21.4073  24.0344
 21.4878  23.9482
 21.5683  24.1416
 21.6487  24.2649
 21.7293  24.3377
 21.8098  24.287
 21.8903  24.2684
 21.9708  24.1758
 22.0512  24.3315
 22.1318  24.4249
 22.2123  24.4299
 22.2928  24.5891
 22.3733  24.5802
 22.4538  24.8033
 22.5343  24.7448
 22.6148  24.9381
 22.6953  25.2555
 22.7758  25.2296
 22.8563  25.6923
 22.9367  26.0868
 22.9943  26.3738