File: test-data-xrd/xrd-map-34-ID-E/Data_0094.chi
F:\20151113_APS_34IDE\\Brian\Particle1\OCV\Data_0094.tif
2-Theta Angle (Degrees)
Intensity
       2000
 0.07475  0.0000000E+00
 0.15525  0.0000000E+00
 0.23575  0.0000000E+00
 0.31625  0.0000000E+00
 0.39675  0.0000000E+00
 0.47725  0.0000000E+00
 0.55775  0.0000000E+00
 0.63825  0.0000000E+00
 0.71875  0.0000000E+00
 0.79925  0.0000000E+00
 0.87975  0.0000000E+00
 0.96025  0.0000000E+00
 1.04075  0.0000000E+00
 1.12125  0.0000000E+00
 1.20175  0.0000000E+00
 1.28225  0.0000000E+00
 1.36275  0.0000000E+00
 1.44325  0.0000000E+00
 1.52375  0.0000000E+00
 1.60425  0.0000000E+00
 1.68475  0.0000000E+00
 1.76525  0.0000000E+00
 1.84575  0.0000000E+00
 1.92625  0.0000000E+00
 2.00675  0.0000000E+00
 2.08725  0.0000000E+00
 2.16775  0.0000000E+00
 2.24825  0.0000000E+00
 2.32875  0.0000000E+00
 2.40925  0.0000000E+00
 2.48975  0.0000000E+00
 2.57025  0.0000000E+00
 2.65075  0.0000000E+00
 2.73125  0.0000000E+00
 2.81175  0.0000000E+00
 2.89225  35.0219
 2.97275  36.7871
 3.05325  34.6955
 3.13375  34.8026
 3.21425  35.5146
 3.29475  35.8003
 3.37525  34.3475
 3.45575  33.8109
 3.53625  33.8222
 3.61675  33.3664
 3.69725  33.6448
 3.77775  33.2084
 3.85825  32.4499
 3.93875  33.3194
 4.01925  32.7668
 4.09975  32.4005
 4.18025  32.5141
 4.26075  32.5807
 4.34125  32.2956
 4.42175  32.3769
 4.50225  32.6312
 4.58275  32.9311
 4.66325  32.9835
 4.74375  32.455
 4.82425  32.5517
 4.90475  32.8922
 4.98525  33.2185
 5.06575  33.6146
 5.14625  33.9498
 5.22675  33.7957
 5.30725  34.4167
 5.38775  34.5597
 5.46825  34.6634
 5.54875  34.9464
 5.62925  35.287
 5.70975  35.6641
 5.79025  35.9648
 5.87075  36.6004
 5.95125  52.0902
 6.03175  43.2008
 6.11225  37.696
 6.19275  37.4656
 6.27325  38.2047
 6.35375  38.1727
 6.43425  38.9064
 6.51475  39.4345
 6.59525  39.7215
 6.67575  40.1355
 6.75625  40.9959
 6.83675  41.5635
 6.91725  41.906
 6.99775  42.4791
 7.07825  42.7168
 7.15875  43.3482
 7.23925  43.728
 7.31975  43.8816
 7.40025  44.1961
 7.48075  44.4637
 7.56125  44.3232
 7.64175  44.7951
 7.72225  44.65
 7.80275  44.6097
 7.88325  44.0745
 7.96375  43.8758
 8.04425  43.4679
 8.12475  43.0245
 8.20525  42.2576
 8.28575  41.3176
 8.36625  40.0762
 8.44675  39.0632
 8.52725  37.7672
 8.60775  36.5254
 8.68825  35.1477
 8.76875  33.8271
 8.84925  32.8272
 8.92975  31.863
 9.01025  30.6661
 9.09075  29.5257
 9.17125  28.877
 9.25175  28.2432
 9.33225  27.4292
 9.41275  26.9365
 9.49325  26.3682
 9.57375  26.0024
 9.65425  25.6547
 9.73475  25.3724
 9.81525  25.2173
 9.89575  24.8245
 9.97625  24.3483
 10.0567  24.2984
 10.1373  23.9587
 10.2178  23.857
 10.2982  23.695
 10.3788  23.5177
 10.4593  23.3572
 10.5397  23.2026
 10.6203  23.2454
 10.7007  22.9932
 10.7813  22.9941
 10.8618  22.9974
 10.9422  22.8166
 11.0228  22.619
 11.1033  22.7713
 11.1837  22.7224
 11.2643  22.4058
 11.3447  22.6567
 11.4253  22.9663
 11.5058  23.6062
 11.5862  32.0705
 11.6668  24.0149
 11.7473  22.6788
 11.8277  22.6339
 11.9083  22.7906
 11.9887  25.2964
 12.0693  25.4645
 12.1498  23.7494
 12.2302  22.7058
 12.3108  22.6818
 12.3913  22.674
 12.4718  22.8951
 12.5523  23.0509
 12.6328  23.0745
 12.7133  23.1163
 12.7938  23.1736
 12.8742  23.5502
 12.9548  23.8909
 13.0353  24.2358
 13.1158  25.0104
 13.1963  25.8002
 13.2768  26.7834
 13.3573  27.7728
 13.4378  28.8194
 13.5183  29.5476
 13.5988  30.0644
 13.6793  30.3253
 13.7598  30.3767
 13.8403  31.5181
 13.9208  59.9372
 14.0013  49.0608
 14.0818  29.0568
 14.1623  27.9288
 14.2428  27.1106
 14.3233  26.5822
 14.4038  26.2075
 14.4843  26.0127
 14.5648  25.8669
 14.6453  25.5615
 14.7258  25.3318
 14.8063  25.2371
 14.8868  25.1827
 14.9673  25.0598
 15.0478  25.1771
 15.1283  26.0435
 15.2088  28.6939
 15.2892  25.1967
 15.3698  24.7555
 15.4503  24.6814
 15.5308  24.7264
 15.6113  24.739
 15.6918  24.709
 15.7723  24.6697
 15.8528  24.7244
 15.9332  24.7784
 16.0138  24.7592
 16.0943  24.7725
 16.1748  24.841
 16.2553  26.0189
 16.3358  25.06
 16.4163  24.8187
 16.4967  24.7697
 16.5773  24.7321
 16.6578  24.6131
 16.7383  24.7432
 16.8188  24.5604
 16.8992  24.6433
 16.9798  24.4064
 17.0603  24.304
 17.1408  24.3674
 17.2213  24.3188
 17.3017  24.0777
 17.3823  24.1733
 17.4628  24.1107
 17.5433  23.9935
 17.6238  23.955
 17.7042  23.9069
 17.7847  23.9581
 17.8653  23.9069
 17.9458  24.0519
 18.0263  24.626
 18.1068  25.8985
 18.1872  24.2201
 18.2678  23.7527
 18.3483  23.8149
 18.4288  23.9
 18.5093  23.7324
 18.5897  23.6365
 18.6703  23.6194
 18.7508  23.6825
 18.8313  23.6546
 18.9118  23.6012
 18.9922  23.5492
 19.0727  23.7786
 19.1533  23.7321
 19.2338  23.678
 19.3143  23.6991
 19.3948  24.0183
 19.4752  23.7522
 19.5558  23.9692
 19.6363  24.7046
 19.7168  30.0983
 19.7973  26.2186
 19.8777  28.1384
 19.9582  24.34
 20.0388  24.0436
 20.1193  23.8278
 20.1998  23.9062
 20.2803  23.9432
 20.3607  24.0248
 20.4413  23.8563
 20.5218  23.9061
 20.6023  24.0948
 20.6828  24.4452
 20.7632  27.5354
 20.8438  24.6696
 20.9243  24.1652
 21.0048  24.0453
 21.0853  23.9857
 21.1658  23.9517
 21.2462  23.9967
 21.3268  24.0434
 21.4073  24.0776
 21.4878  24.1651
 21.5683  24.0505
 21.6487  24.1854
 21.7293  24.2987
 21.8098  24.2615
 21.8903  24.4263
 21.9708  24.3319
 22.0512  24.3118
 22.1318  24.5279
 22.2123  24.5722
 22.2928  24.65
 22.3733  24.8058
 22.4538  24.7175
 22.5343  24.7492
 22.6148  24.9404
 22.6953  25.1894
 22.7758  25.3049
 22.8563  25.6758
 22.9367  26.2511
 22.9943  26.9114