File: test-data-xrd/xrd-map-34-ID-E/Data_0003.chi
F:\20151113_APS_34IDE\\Brian\Particle1\OCV\Data_0003.tif
2-Theta Angle (Degrees)
Intensity
       2000
 0.07475  0.0000000E+00
 0.15525  0.0000000E+00
 0.23575  0.0000000E+00
 0.31625  0.0000000E+00
 0.39675  0.0000000E+00
 0.47725  0.0000000E+00
 0.55775  0.0000000E+00
 0.63825  0.0000000E+00
 0.71875  0.0000000E+00
 0.79925  0.0000000E+00
 0.87975  0.0000000E+00
 0.96025  0.0000000E+00
 1.04075  0.0000000E+00
 1.12125  0.0000000E+00
 1.20175  0.0000000E+00
 1.28225  0.0000000E+00
 1.36275  0.0000000E+00
 1.44325  0.0000000E+00
 1.52375  0.0000000E+00
 1.60425  0.0000000E+00
 1.68475  0.0000000E+00
 1.76525  0.0000000E+00
 1.84575  0.0000000E+00
 1.92625  0.0000000E+00
 2.00675  0.0000000E+00
 2.08725  0.0000000E+00
 2.16775  0.0000000E+00
 2.24825  0.0000000E+00
 2.32875  0.0000000E+00
 2.40925  0.0000000E+00
 2.48975  0.0000000E+00
 2.57025  0.0000000E+00
 2.65075  0.0000000E+00
 2.73125  0.0000000E+00
 2.81175  0.0000000E+00
 2.89225  36.0848
 2.97275  35.5834
 3.05325  36.1087
 3.13375  35.5316
 3.21425  35.3302
 3.29475  34.7685
 3.37525  34.3486
 3.45575  34.3549
 3.53625  34.107
 3.61675  33.9831
 3.69725  33.2403
 3.77775  33.1655
 3.85825  32.8529
 3.93875  32.5129
 4.01925  32.4099
 4.09975  32.6771
 4.18025  32.569
 4.26075  32.4222
 4.34125  32.3711
 4.42175  32.327
 4.50225  32.7165
 4.58275  32.7443
 4.66325  33.3661
 4.74375  32.4854
 4.82425  32.4334
 4.90475  32.733
 4.98525  33.2814
 5.06575  33.558
 5.14625  33.8494
 5.22675  34.1559
 5.30725  34.1207
 5.38775  34.723
 5.46825  34.9205
 5.54875  34.9262
 5.62925  35.2891
 5.70975  35.4217
 5.79025  36.1097
 5.87075  36.0241
 5.95125  38.8379
 6.03175  37.9615
 6.11225  37.1369
 6.19275  37.2461
 6.27325  37.8153
 6.35375  38.1572
 6.43425  39.0129
 6.51475  39.3245
 6.59525  39.9322
 6.67575  40.3942
 6.75625  41.1985
 6.83675  42.0298
 6.91725  42.563
 6.99775  42.4179
 7.07825  43.2355
 7.15875  43.7635
 7.23925  43.7513
 7.31975  44.3194
 7.40025  44.7096
 7.48075  44.5728
 7.56125  44.88
 7.64175  44.9978
 7.72225  45.139
 7.80275  44.8355
 7.88325  44.749
 7.96375  44.5267
 8.04425  44.1207
 8.12475  43.4024
 8.20525  43.0353
 8.28575  41.8009
 8.36625  40.7902
 8.44675  39.7169
 8.52725  38.3719
 8.60775  36.9101
 8.68825  36.0877
 8.76875  34.7722
 8.84925  33.685
 8.92975  32.5185
 9.01025  31.1974
 9.09075  30.4193
 9.17125  29.609
 9.25175  28.6864
 9.33225  28.2634
 9.41275  27.6658
 9.49325  27.2267
 9.57375  26.7535
 9.65425  26.1989
 9.73475  25.7883
 9.81525  25.4503
 9.89575  25.173
 9.97625  25.0535
 10.0567  24.7459
 10.1373  24.387
 10.2178  24.1966
 10.2982  24.126
 10.3788  23.8687
 10.4593  23.6505
 10.5397  23.6785
 10.6203  23.544
 10.7007  23.3489
 10.7813  23.2838
 10.8618  23.0838
 10.9422  23.1041
 11.0228  23.0699
 11.1033  22.994
 11.1837  22.9748
 11.2643  22.8037
 11.3447  22.7857
 11.4253  23.1316
 11.5058  23.1999
 11.5862  26.3432
 11.6668  23.2714
 11.7473  22.7696
 11.8277  22.7618
 11.9083  22.8034
 11.9887  23.2591
 12.0693  23.3773
 12.1498  23.2648
 12.2302  22.8496
 12.3108  22.909
 12.3913  22.9025
 12.4718  22.9057
 12.5523  23.0978
 12.6328  23.2251
 12.7133  23.601
 12.7938  23.3875
 12.8742  23.6277
 12.9548  24.1709
 13.0353  24.4571
 13.1158  25.2404
 13.1963  25.8858
 13.2768  26.9647
 13.3573  28.1772
 13.4378  28.9312
 13.5183  29.7083
 13.5988  30.2141
 13.6793  30.1266
 13.7598  29.6015
 13.8403  29.3862
 13.9208  30.8177
 14.0013  30.2307
 14.0818  27.9754
 14.1623  27.3552
 14.2428  26.9145
 14.3233  26.4298
 14.4038  26.3518
 14.4843  26.0214
 14.5648  25.8404
 14.6453  25.6157
 14.7258  25.562
 14.8063  25.3036
 14.8868  25.1672
 14.9673  25.1885
 15.0478  25.0862
 15.1283  25.2857
 15.2088  26.052
 15.2892  25.0288
 15.3698  24.723
 15.4503  24.8903
 15.5308  24.8468
 15.6113  24.887
 15.6918  24.912
 15.7723  24.827
 15.8528  24.8341
 15.9332  24.8375
 16.0138  24.9093
 16.0943  24.9971
 16.1748  25.2729
 16.2553  27.2326
 16.3358  25.3538
 16.4163  25.1066
 16.4967  24.9607
 16.5773  24.8097
 16.6578  24.7739
 16.7383  24.7971
 16.8188  24.8175
 16.8992  24.6467
 16.9798  24.7142
 17.0603  24.5745
 17.1408  24.5476
 17.2213  24.4846
 17.3017  24.3528
 17.3823  24.3145
 17.4628  24.2878
 17.5433  24.2701
 17.6238  24.2079
 17.7042  24.1284
 17.7847  24.0659
 17.8653  24.0644
 17.9458  24.0742
 18.0263  24.181
 18.1068  24.9087
 18.1872  25.0959
 18.2678  23.8943
 18.3483  23.9039
 18.4288  23.8454
 18.5093  23.8268
 18.5897  23.8443
 18.6703  23.7251
 18.7508  23.8244
 18.8313  23.6603
 18.9118  23.823
 18.9922  23.7164
 19.0727  23.8814
 19.1533  23.8054
 19.2338  23.7718
 19.3143  23.8745
 19.3948  23.9298
 19.4752  23.9621
 19.5558  24.01
 19.6363  24.1686
 19.7168  25.3548
 19.7973  24.6118
 19.8777  25.0626
 19.9582  24.1308
 20.0388  24.0027
 20.1193  24.0222
 20.1998  23.9728
 20.2803  23.96
 20.3607  23.9816
 20.4413  24.0316
 20.5218  23.8763
 20.6023  24.1121
 20.6828  24.2105
 20.7632  25.0246
 20.8438  24.3013
 20.9243  24.227
 21.0048  24.0104
 21.0853  24.2515
 21.1658  24.0795
 21.2462  24.0868
 21.3268  24.2235
 21.4073  24.3082
 21.4878  24.2357
 21.5683  24.2156
 21.6487  24.4228
 21.7293  24.3004
 21.8098  24.3726
 21.8903  24.4315
 21.9708  24.57
 22.0512  24.5188
 22.1318  24.6253
 22.2123  24.668
 22.2928  24.6508
 22.3733  24.7146
 22.4538  24.8379
 22.5343  24.955
 22.6148  25.0767
 22.6953  25.3718
 22.7758  25.5483
 22.8563  25.7263
 22.9367  26.2006
 22.9943  26.52