File: test-data-xrd/xrd-map-34-ID-E/Data_0041.chi
F:\20151113_APS_34IDE\\Brian\Particle1\OCV\Data_0041.tif
2-Theta Angle (Degrees)
Intensity
       2000
 0.07475  0.0000000E+00
 0.15525  0.0000000E+00
 0.23575  0.0000000E+00
 0.31625  0.0000000E+00
 0.39675  0.0000000E+00
 0.47725  0.0000000E+00
 0.55775  0.0000000E+00
 0.63825  0.0000000E+00
 0.71875  0.0000000E+00
 0.79925  0.0000000E+00
 0.87975  0.0000000E+00
 0.96025  0.0000000E+00
 1.04075  0.0000000E+00
 1.12125  0.0000000E+00
 1.20175  0.0000000E+00
 1.28225  0.0000000E+00
 1.36275  0.0000000E+00
 1.44325  0.0000000E+00
 1.52375  0.0000000E+00
 1.60425  0.0000000E+00
 1.68475  0.0000000E+00
 1.76525  0.0000000E+00
 1.84575  0.0000000E+00
 1.92625  0.0000000E+00
 2.00675  0.0000000E+00
 2.08725  0.0000000E+00
 2.16775  0.0000000E+00
 2.24825  0.0000000E+00
 2.32875  0.0000000E+00
 2.40925  0.0000000E+00
 2.48975  0.0000000E+00
 2.57025  0.0000000E+00
 2.65075  0.0000000E+00
 2.73125  0.0000000E+00
 2.81175  0.0000000E+00
 2.89225  34.4639
 2.97275  35.1784
 3.05325  37.0976
 3.13375  35.9395
 3.21425  35.7475
 3.29475  34.5254
 3.37525  35.436
 3.45575  34.4594
 3.53625  34.2117
 3.61675  33.5011
 3.69725  33.3592
 3.77775  33.2025
 3.85825  32.1516
 3.93875  32.1626
 4.01925  32.2015
 4.09975  32.3981
 4.18025  32.1091
 4.26075  32.5213
 4.34125  32.0864
 4.42175  32.3177
 4.50225  32.5006
 4.58275  32.6601
 4.66325  33.1449
 4.74375  32.9407
 4.82425  32.6303
 4.90475  32.8388
 4.98525  33.3446
 5.06575  33.7065
 5.14625  34.0174
 5.22675  33.9214
 5.30725  34.2852
 5.38775  34.7237
 5.46825  34.6116
 5.54875  34.999
 5.62925  35.2891
 5.70975  35.2392
 5.79025  36.1213
 5.87075  36.3251
 5.95125  44.701
 6.03175  43.3469
 6.11225  37.0857
 6.19275  36.9696
 6.27325  37.8676
 6.35375  38.0237
 6.43425  38.3691
 6.51475  39.0515
 6.59525  39.7159
 6.67575  39.7993
 6.75625  40.6135
 6.83675  41.2363
 6.91725  41.9625
 6.99775  42.0514
 7.07825  42.4069
 7.15875  43.1363
 7.23925  43.6169
 7.31975  43.715
 7.40025  44.0583
 7.48075  44.2983
 7.56125  44.5453
 7.64175  43.953
 7.72225  44.2307
 7.80275  44.0137
 7.88325  43.696
 7.96375  43.6834
 8.04425  42.9906
 8.12475  42.2537
 8.20525  41.6059
 8.28575  40.7066
 8.36625  39.9493
 8.44675  38.5117
 8.52725  37.6118
 8.60775  36.2603
 8.68825  35.0518
 8.76875  33.9738
 8.84925  32.6346
 8.92975  31.6919
 9.01025  30.8437
 9.09075  29.951
 9.17125  29.2393
 9.25175  28.1823
 9.33225  27.7895
 9.41275  27.1857
 9.49325  26.6753
 9.57375  26.1138
 9.65425  25.7562
 9.73475  25.3712
 9.81525  24.9883
 9.89575  24.6357
 9.97625  24.5094
 10.0567  24.2603
 10.1373  23.9424
 10.2178  23.8126
 10.2982  23.741
 10.3788  23.7028
 10.4593  23.3539
 10.5397  23.2664
 10.6203  23.088
 10.7007  22.9838
 10.7813  23.0467
 10.8618  22.7571
 10.9422  22.8058
 11.0228  22.6098
 11.1033  22.6365
 11.1837  22.7811
 11.2643  22.5509
 11.3447  22.7278
 11.4253  22.9715
 11.5058  23.4095
 11.5862  30.5922
 11.6668  23.5832
 11.7473  22.8542
 11.8277  22.699
 11.9083  22.7496
 11.9887  25.6736
 12.0693  28.1697
 12.1498  24.3802
 12.2302  22.7697
 12.3108  22.5423
 12.3913  22.5925
 12.4718  22.6542
 12.5523  22.8456
 12.6328  22.9627
 12.7133  22.915
 12.7938  23.2944
 12.8742  23.455
 12.9548  23.8049
 13.0353  24.2151
 13.1158  24.9469
 13.1963  25.5822
 13.2768  26.6435
 13.3573  27.7185
 13.4378  28.5392
 13.5183  29.536
 13.5988  29.7637
 13.6793  29.913
 13.7598  29.6309
 13.8403  29.7424
 13.9208  36.7665
 14.0013  34.9444
 14.0818  28.039
 14.1623  27.2571
 14.2428  26.5116
 14.3233  26.2809
 14.4038  26.0587
 14.4843  25.8709
 14.5648  25.5159
 14.6453  25.3212
 14.7258  25.1671
 14.8063  24.9637
 14.8868  24.9869
 14.9673  24.9104
 15.0478  25.0468
 15.1283  25.3276
 15.2088  28.0906
 15.2892  25.0445
 15.3698  24.6678
 15.4503  24.5691
 15.5308  24.5157
 15.6113  24.5833
 15.6918  24.5877
 15.7723  24.6366
 15.8528  24.645
 15.9332  24.6482
 16.0138  24.7333
 16.0943  24.723
 16.1748  24.9805
 16.2553  25.4549
 16.3358  25.0017
 16.4163  24.8218
 16.4967  24.6138
 16.5773  24.6411
 16.6578  24.7798
 16.7383  24.4231
 16.8188  24.4143
 16.8992  24.4112
 16.9798  24.2979
 17.0603  24.1711
 17.1408  24.3549
 17.2213  24.2005
 17.3017  24.1297
 17.3823  24.0359
 17.4628  24.1715
 17.5433  23.8527
 17.6238  23.902
 17.7042  23.8905
 17.7847  23.7679
 17.8653  23.8221
 17.9458  24.1697
 18.0263  24.9172
 18.1068  25.0975
 18.1872  23.9761
 18.2678  23.7858
 18.3483  23.6161
 18.4288  23.6312
 18.5093  23.6712
 18.5897  23.6898
 18.6703  23.5553
 18.7508  23.5317
 18.8313  23.3574
 18.9118  23.4995
 18.9922  23.4633
 19.0727  23.6259
 19.1533  23.5529
 19.2338  23.6098
 19.3143  23.7287
 19.3948  23.647
 19.4752  23.7191
 19.5558  23.8608
 19.6363  24.5062
 19.7168  27.6952
 19.7973  25.5096
 19.8777  28.7828
 19.9582  24.2364
 20.0388  23.8901
 20.1193  23.7774
 20.1998  23.6622
 20.2803  23.7425
 20.3607  23.7509
 20.4413  23.8967
 20.5218  23.7565
 20.6023  23.9064
 20.6828  24.2036
 20.7632  25.5058
 20.8438  24.2744
 20.9243  23.9852
 21.0048  24.1487
 21.0853  23.9316
 21.1658  23.8791
 21.2462  23.9475
 21.3268  23.8952
 21.4073  23.966
 21.4878  23.9067
 21.5683  24.007
 21.6487  24.0982
 21.7293  24.0503
 21.8098  24.1278
 21.8903  24.2046
 21.9708  24.1599
 22.0512  24.3077
 22.1318  24.4811
 22.2123  24.329
 22.2928  24.4705
 22.3733  24.537
 22.4538  24.7397
 22.5343  24.7768
 22.6148  24.9696
 22.6953  25.1079
 22.7758  25.1557
 22.8563  25.6347
 22.9367  26.1283
 22.9943  26.6661