File: test-data-xrd/xrd-map-34-ID-E/Data_0023.chi
F:\20151113_APS_34IDE\\Brian\Particle1\OCV\Data_0023.tif
2-Theta Angle (Degrees)
Intensity
       2000
 0.07475  0.0000000E+00
 0.15525  0.0000000E+00
 0.23575  0.0000000E+00
 0.31625  0.0000000E+00
 0.39675  0.0000000E+00
 0.47725  0.0000000E+00
 0.55775  0.0000000E+00
 0.63825  0.0000000E+00
 0.71875  0.0000000E+00
 0.79925  0.0000000E+00
 0.87975  0.0000000E+00
 0.96025  0.0000000E+00
 1.04075  0.0000000E+00
 1.12125  0.0000000E+00
 1.20175  0.0000000E+00
 1.28225  0.0000000E+00
 1.36275  0.0000000E+00
 1.44325  0.0000000E+00
 1.52375  0.0000000E+00
 1.60425  0.0000000E+00
 1.68475  0.0000000E+00
 1.76525  0.0000000E+00
 1.84575  0.0000000E+00
 1.92625  0.0000000E+00
 2.00675  0.0000000E+00
 2.08725  0.0000000E+00
 2.16775  0.0000000E+00
 2.24825  0.0000000E+00
 2.32875  0.0000000E+00
 2.40925  0.0000000E+00
 2.48975  0.0000000E+00
 2.57025  0.0000000E+00
 2.65075  0.0000000E+00
 2.73125  0.0000000E+00
 2.81175  0.0000000E+00
 2.89225  35.6083
 2.97275  35.7572
 3.05325  36.1962
 3.13375  35.9007
 3.21425  34.9699
 3.29475  34.9793
 3.37525  35.597
 3.45575  33.6569
 3.53625  34.133
 3.61675  33.7475
 3.69725  33.3431
 3.77775  33.6571
 3.85825  32.7517
 3.93875  32.6387
 4.01925  33.1473
 4.09975  32.4677
 4.18025  31.9622
 4.26075  32.3279
 4.34125  32.4638
 4.42175  32.8428
 4.50225  32.0199
 4.58275  33.0052
 4.66325  33.3317
 4.74375  32.8615
 4.82425  32.7972
 4.90475  32.6947
 4.98525  33.0804
 5.06575  33.3792
 5.14625  33.3662
 5.22675  34.1295
 5.30725  34.1517
 5.38775  34.6087
 5.46825  35.6893
 5.54875  34.7594
 5.62925  35.223
 5.70975  35.5852
 5.79025  36.0621
 5.87075  36.5142
 5.95125  47.4093
 6.03175  44.1761
 6.11225  37.3709
 6.19275  37.4741
 6.27325  37.777
 6.35375  38.5586
 6.43425  38.9072
 6.51475  39.1407
 6.59525  39.9753
 6.67575  40.5303
 6.75625  40.9087
 6.83675  41.8922
 6.91725  42.2638
 6.99775  42.8038
 7.07825  42.9452
 7.15875  43.4916
 7.23925  44.2547
 7.31975  44.4571
 7.40025  44.3704
 7.48075  44.8676
 7.56125  44.7333
 7.64175  45.011
 7.72225  44.9675
 7.80275  44.8975
 7.88325  44.4948
 7.96375  44.112
 8.04425  43.7745
 8.12475  43.3161
 8.20525  42.6345
 8.28575  41.7475
 8.36625  40.6393
 8.44675  39.3723
 8.52725  37.9926
 8.60775  36.9362
 8.68825  35.7345
 8.76875  34.2465
 8.84925  33.2318
 8.92975  32.2974
 9.01025  31.2116
 9.09075  30.3181
 9.17125  29.4005
 9.25175  28.7456
 9.33225  27.9956
 9.41275  27.5319
 9.49325  27.0531
 9.57375  26.2887
 9.65425  26.1008
 9.73475  25.6982
 9.81525  25.492
 9.89575  25.0253
 9.97625  24.5923
 10.0567  24.458
 10.1373  24.3003
 10.2178  24.0684
 10.2982  24.0972
 10.3788  23.9304
 10.4593  23.7085
 10.5397  23.3424
 10.6203  23.1576
 10.7007  23.1501
 10.7813  23.0547
 10.8618  23.1772
 10.9422  23.043
 11.0228  22.7721
 11.1033  22.8157
 11.1837  22.6376
 11.2643  22.6043
 11.3447  22.649
 11.4253  22.961
 11.5058  22.848
 11.5862  24.7382
 11.6668  22.8155
 11.7473  22.6818
 11.8277  22.5419
 11.9083  22.5972
 11.9887  22.8323
 12.0693  23.0475
 12.1498  23.0824
 12.2302  22.7329
 12.3108  22.8954
 12.3913  22.7999
 12.4718  22.7299
 12.5523  22.9907
 12.6328  22.975
 12.7133  23.1656
 12.7938  23.2111
 12.8742  23.6381
 12.9548  23.8666
 13.0353  24.3488
 13.1158  25.055
 13.1963  25.9492
 13.2768  26.8918
 13.3573  27.8987
 13.4378  28.6642
 13.5183  29.5458
 13.5988  30.0632
 13.6793  29.8664
 13.7598  29.5345
 13.8403  29.3941
 13.9208  31.2226
 14.0013  30.3162
 14.0818  27.6944
 14.1623  27.2769
 14.2428  26.6312
 14.3233  26.6642
 14.4038  26.1611
 14.4843  25.9009
 14.5648  25.7313
 14.6453  25.4417
 14.7258  25.3644
 14.8063  25.0484
 14.8868  24.9399
 14.9673  24.9378
 15.0478  25.0436
 15.1283  25.1257
 15.2088  25.4891
 15.2892  24.8557
 15.3698  24.6136
 15.4503  24.724
 15.5308  24.7184
 15.6113  24.7388
 15.6918  24.6604
 15.7723  24.755
 15.8528  24.6727
 15.9332  24.6748
 16.0138  24.9064
 16.0943  24.9031
 16.1748  25.1806
 16.2553  29.2392
 16.3358  25.5234
 16.4163  25.1237
 16.4967  24.9696
 16.5773  24.6902
 16.6578  24.6875
 16.7383  24.6181
 16.8188  24.5638
 16.8992  24.5946
 16.9798  24.4303
 17.0603  24.3161
 17.1408  24.3391
 17.2213  24.4195
 17.3017  24.3958
 17.3823  24.197
 17.4628  24.04
 17.5433  24.0848
 17.6238  23.9989
 17.7042  23.9523
 17.7847  23.8744
 17.8653  23.9728
 17.9458  23.9447
 18.0263  24.3907
 18.1068  24.9513
 18.1872  23.8491
 18.2678  23.7925
 18.3483  23.6699
 18.4288  23.6862
 18.5093  23.7771
 18.5897  23.6341
 18.6703  23.502
 18.7508  23.536
 18.8313  24.0552
 18.9118  23.6816
 18.9922  23.6346
 19.0727  23.6503
 19.1533  23.6784
 19.2338  23.5559
 19.3143  23.6758
 19.3948  23.6579
 19.4752  23.6921
 19.5558  23.8206
 19.6363  23.7932
 19.7168  24.4666
 19.7973  24.4373
 19.8777  24.5299
 19.9582  23.8833
 20.0388  23.747
 20.1193  23.8512
 20.1998  23.8343
 20.2803  23.7868
 20.3607  23.818
 20.4413  23.844
 20.5218  23.7832
 20.6023  23.9427
 20.6828  24.0689
 20.7632  24.8135
 20.8438  24.0748
 20.9243  24.096
 21.0048  24.0814
 21.0853  23.9913
 21.1658  23.8772
 21.2462  24.0276
 21.3268  24.0759
 21.4073  24.0317
 21.4878  24.1179
 21.5683  24.1155
 21.6487  24.2277
 21.7293  24.2192
 21.8098  24.3206
 21.8903  24.3416
 21.9708  24.3429
 22.0512  24.3151
 22.1318  24.5436
 22.2123  24.435
 22.2928  24.5935
 22.3733  24.606
 22.4538  24.7878
 22.5343  24.9464
 22.6148  25.0199
 22.6953  25.1252
 22.7758  25.2599
 22.8563  25.6636
 22.9367  25.9512
 22.9943  26.2736