File: test-data-xrd/xrd-map-34-ID-E/Data_0116.chi
F:\20151113_APS_34IDE\\Brian\Particle1\OCV\Data_0116.tif
2-Theta Angle (Degrees)
Intensity
       2000
 0.07475  0.0000000E+00
 0.15525  0.0000000E+00
 0.23575  0.0000000E+00
 0.31625  0.0000000E+00
 0.39675  0.0000000E+00
 0.47725  0.0000000E+00
 0.55775  0.0000000E+00
 0.63825  0.0000000E+00
 0.71875  0.0000000E+00
 0.79925  0.0000000E+00
 0.87975  0.0000000E+00
 0.96025  0.0000000E+00
 1.04075  0.0000000E+00
 1.12125  0.0000000E+00
 1.20175  0.0000000E+00
 1.28225  0.0000000E+00
 1.36275  0.0000000E+00
 1.44325  0.0000000E+00
 1.52375  0.0000000E+00
 1.60425  0.0000000E+00
 1.68475  0.0000000E+00
 1.76525  0.0000000E+00
 1.84575  0.0000000E+00
 1.92625  0.0000000E+00
 2.00675  0.0000000E+00
 2.08725  0.0000000E+00
 2.16775  0.0000000E+00
 2.24825  0.0000000E+00
 2.32875  0.0000000E+00
 2.40925  0.0000000E+00
 2.48975  0.0000000E+00
 2.57025  0.0000000E+00
 2.65075  0.0000000E+00
 2.73125  0.0000000E+00
 2.81175  0.0000000E+00
 2.89225  35.1508
 2.97275  33.8936
 3.05325  34.7247
 3.13375  34.0894
 3.21425  33.6981
 3.29475  33.3541
 3.37525  33.8304
 3.45575  33.4056
 3.53625  33.4551
 3.61675  32.9029
 3.69725  32.7021
 3.77775  32.6525
 3.85825  32.1479
 3.93875  32.1602
 4.01925  32.1773
 4.09975  31.6779
 4.18025  31.8897
 4.26075  31.8656
 4.34125  31.602
 4.42175  31.604
 4.50225  31.9664
 4.58275  32.1415
 4.66325  32.3317
 4.74375  31.9975
 4.82425  32.2531
 4.90475  32.3805
 4.98525  32.213
 5.06575  32.7805
 5.14625  33.0596
 5.22675  33.4395
 5.30725  33.6263
 5.38775  34.043
 5.46825  34.318
 5.54875  34.625
 5.62925  34.5814
 5.70975  35.0857
 5.79025  35.1781
 5.87075  35.2623
 5.95125  39.9704
 6.03175  38.9784
 6.11225  36.0906
 6.19275  36.5124
 6.27325  36.9666
 6.35375  37.4481
 6.43425  37.8506
 6.51475  38.3743
 6.59525  38.7911
 6.67575  39.4047
 6.75625  39.8599
 6.83675  40.6993
 6.91725  41.1816
 6.99775  41.8496
 7.07825  42.2313
 7.15875  42.4478
 7.23925  42.4597
 7.31975  42.9321
 7.40025  43.2201
 7.48075  43.3677
 7.56125  43.5857
 7.64175  43.3908
 7.72225  43.0922
 7.80275  43.3423
 7.88325  43.2237
 7.96375  42.7786
 8.04425  42.5947
 8.12475  41.6168
 8.20525  40.9717
 8.28575  40.1691
 8.36625  39.1195
 8.44675  38.0007
 8.52725  36.9247
 8.60775  35.6943
 8.68825  34.9298
 8.76875  33.3202
 8.84925  32.3183
 8.92975  31.1615
 9.01025  30.1009
 9.09075  29.2981
 9.17125  28.428
 9.25175  27.4495
 9.33225  27.0554
 9.41275  26.5711
 9.49325  26.0225
 9.57375  25.4276
 9.65425  25.145
 9.73475  24.6338
 9.81525  24.3105
 9.89575  24.1398
 9.97625  24.0088
 10.0567  23.6522
 10.1373  23.6034
 10.2178  23.4319
 10.2982  23.2125
 10.3788  23.0558
 10.4593  22.9486
 10.5397  22.9499
 10.6203  22.8897
 10.7007  22.5457
 10.7813  22.377
 10.8618  22.3958
 10.9422  22.5555
 11.0228  22.3758
 11.1033  22.231
 11.1837  22.1489
 11.2643  21.9765
 11.3447  22.1928
 11.4253  22.5466
 11.5058  22.8093
 11.5862  26.1023
 11.6668  23.0909
 11.7473  22.232
 11.8277  22.2292
 11.9083  22.456
 11.9887  25.8495
 12.0693  23.9467
 12.1498  23.1729
 12.2302  22.099
 12.3108  22.2294
 12.3913  22.288
 12.4718  22.1958
 12.5523  22.2476
 12.6328  22.4512
 12.7133  22.5447
 12.7938  22.6788
 12.8742  23.167
 12.9548  23.3027
 13.0353  23.6978
 13.1158  24.4184
 13.1963  25.0614
 13.2768  26.1419
 13.3573  27.0457
 13.4378  28.0418
 13.5183  28.7771
 13.5988  29.3125
 13.6793  29.2326
 13.7598  29.0303
 13.8403  29.1099
 13.9208  33.8804
 14.0013  31.4711
 14.0818  27.3574
 14.1623  26.565
 14.2428  26.3131
 14.3233  25.6692
 14.4038  25.7976
 14.4843  25.4281
 14.5648  25.2252
 14.6453  25.0201
 14.7258  24.7479
 14.8063  24.5353
 14.8868  24.5759
 14.9673  24.4345
 15.0478  24.5297
 15.1283  25.2273
 15.2088  27.3538
 15.2892  24.7166
 15.3698  24.3435
 15.4503  24.3425
 15.5308  24.3278
 15.6113  24.0004
 15.6918  24.1057
 15.7723  24.1177
 15.8528  24.2008
 15.9332  24.3174
 16.0138  24.1546
 16.0943  24.4777
 16.1748  24.454
 16.2553  25.4269
 16.3358  24.5804
 16.4163  24.38
 16.4967  24.2975
 16.5773  24.1505
 16.6578  24.2865
 16.7383  24.0941
 16.8188  24.1296
 16.8992  23.8445
 16.9798  23.9616
 17.0603  23.9275
 17.1408  23.8065
 17.2213  23.9261
 17.3017  23.7879
 17.3823  23.6604
 17.4628  23.5993
 17.5433  23.6131
 17.6238  23.5385
 17.7042  23.5001
 17.7847  23.5715
 17.8653  23.494
 17.9458  23.493
 18.0263  23.8102
 18.1068  24.6938
 18.1872  23.7149
 18.2678  23.2683
 18.3483  23.1569
 18.4288  23.3563
 18.5093  23.2004
 18.5897  23.2312
 18.6703  23.2365
 18.7508  23.0735
 18.8313  23.1318
 18.9118  23.1092
 18.9922  23.1259
 19.0727  23.2116
 19.1533  23.1702
 19.2338  23.1333
 19.3143  23.2394
 19.3948  23.3354
 19.4752  23.3528
 19.5558  23.3994
 19.6363  23.7477
 19.7168  25.7756
 19.7973  24.9855
 19.8777  25.7868
 19.9582  23.6085
 20.0388  23.5137
 20.1193  23.4281
 20.1998  23.4631
 20.2803  23.3367
 20.3607  23.4842
 20.4413  23.4071
 20.5218  23.3486
 20.6023  23.5178
 20.6828  23.997
 20.7632  25.3877
 20.8438  23.9173
 20.9243  23.8928
 21.0048  23.7811
 21.0853  23.6009
 21.1658  23.5073
 21.2462  23.4876
 21.3268  23.5545
 21.4073  23.5663
 21.4878  23.5843
 21.5683  23.7715
 21.6487  23.6113
 21.7293  23.7802
 21.8098  23.7133
 21.8903  23.8914
 21.9708  23.8126
 22.0512  23.8537
 22.1318  23.9899
 22.2123  23.9162
 22.2928  23.9378
 22.3733  24.0639
 22.4538  24.276
 22.5343  24.3366
 22.6148  24.5579
 22.6953  24.6688
 22.7758  24.8956
 22.8563  25.1687
 22.9367  25.5012
 22.9943  25.8785