File: test-data-xrd/xrd-map-34-ID-E/Data_0042.chi
F:\20151113_APS_34IDE\\Brian\Particle1\OCV\Data_0042.tif
2-Theta Angle (Degrees)
Intensity
       2000
 0.07475  0.0000000E+00
 0.15525  0.0000000E+00
 0.23575  0.0000000E+00
 0.31625  0.0000000E+00
 0.39675  0.0000000E+00
 0.47725  0.0000000E+00
 0.55775  0.0000000E+00
 0.63825  0.0000000E+00
 0.71875  0.0000000E+00
 0.79925  0.0000000E+00
 0.87975  0.0000000E+00
 0.96025  0.0000000E+00
 1.04075  0.0000000E+00
 1.12125  0.0000000E+00
 1.20175  0.0000000E+00
 1.28225  0.0000000E+00
 1.36275  0.0000000E+00
 1.44325  0.0000000E+00
 1.52375  0.0000000E+00
 1.60425  0.0000000E+00
 1.68475  0.0000000E+00
 1.76525  0.0000000E+00
 1.84575  0.0000000E+00
 1.92625  0.0000000E+00
 2.00675  0.0000000E+00
 2.08725  0.0000000E+00
 2.16775  0.0000000E+00
 2.24825  0.0000000E+00
 2.32875  0.0000000E+00
 2.40925  0.0000000E+00
 2.48975  0.0000000E+00
 2.57025  0.0000000E+00
 2.65075  0.0000000E+00
 2.73125  0.0000000E+00
 2.81175  0.0000000E+00
 2.89225  34.7241
 2.97275  35.6821
 3.05325  34.5137
 3.13375  36.0616
 3.21425  35.2745
 3.29475  34.5543
 3.37525  34.2774
 3.45575  33.6724
 3.53625  33.6197
 3.61675  33.433
 3.69725  32.7659
 3.77775  33.0353
 3.85825  32.6678
 3.93875  32.631
 4.01925  32.5624
 4.09975  32.3107
 4.18025  32.4025
 4.26075  32.139
 4.34125  32.6912
 4.42175  32.0818
 4.50225  32.4284
 4.58275  32.4993
 4.66325  33.0095
 4.74375  32.7048
 4.82425  32.5927
 4.90475  32.6377
 4.98525  33.0621
 5.06575  33.2264
 5.14625  33.2295
 5.22675  33.944
 5.30725  34.1903
 5.38775  34.2947
 5.46825  34.7553
 5.54875  34.8715
 5.62925  35.0466
 5.70975  35.3601
 5.79025  35.5096
 5.87075  36.2191
 5.95125  40.5597
 6.03175  40.6143
 6.11225  37.1787
 6.19275  36.9255
 6.27325  37.1347
 6.35375  38.0483
 6.43425  38.2986
 6.51475  38.949
 6.59525  39.5825
 6.67575  40.0735
 6.75625  40.5119
 6.83675  41.0635
 6.91725  41.7379
 6.99775  42.1507
 7.07825  42.8159
 7.15875  43.211
 7.23925  43.4405
 7.31975  44.033
 7.40025  43.9008
 7.48075  44.0776
 7.56125  43.9129
 7.64175  44.041
 7.72225  44.2575
 7.80275  44.1326
 7.88325  43.9547
 7.96375  43.3404
 8.04425  43.1842
 8.12475  42.5044
 8.20525  41.5218
 8.28575  40.9042
 8.36625  39.9024
 8.44675  38.687
 8.52725  37.5453
 8.60775  36.2723
 8.68825  34.9791
 8.76875  33.6641
 8.84925  32.8873
 8.92975  31.7764
 9.01025  30.4272
 9.09075  29.6809
 9.17125  28.908
 9.25175  28.5848
 9.33225  27.2983
 9.41275  26.8256
 9.49325  26.3922
 9.57375  26.0261
 9.65425  25.3817
 9.73475  25.1494
 9.81525  24.8239
 9.89575  24.574
 9.97625  24.3327
 10.0567  24.1655
 10.1373  23.6508
 10.2178  23.6307
 10.2982  23.5079
 10.3788  23.3284
 10.4593  23.2042
 10.5397  23.1114
 10.6203  22.9197
 10.7007  22.8614
 10.7813  22.8613
 10.8618  22.7463
 10.9422  22.5648
 11.0228  22.38
 11.1033  22.3078
 11.1837  22.3293
 11.2643  22.3405
 11.3447  22.3376
 11.4253  22.9928
 11.5058  23.1791
 11.5862  28.0445
 11.6668  23.5335
 11.7473  22.4517
 11.8277  22.4976
 11.9083  22.5779
 11.9887  23.2877
 12.0693  23.8411
 12.1498  23.2268
 12.2302  22.4455
 12.3108  22.5328
 12.3913  22.5086
 12.4718  22.5487
 12.5523  22.6183
 12.6328  22.8139
 12.7133  22.8838
 12.7938  22.8498
 12.8742  23.2886
 12.9548  23.4968
 13.0353  23.9419
 13.1158  24.8566
 13.1963  25.5426
 13.2768  26.4964
 13.3573  27.6043
 13.4378  28.5466
 13.5183  29.222
 13.5988  29.6953
 13.6793  29.6616
 13.7598  29.4195
 13.8403  29.3839
 13.9208  31.4717
 14.0013  29.9986
 14.0818  27.7319
 14.1623  27.0402
 14.2428  26.2673
 14.3233  26.122
 14.4038  25.8002
 14.4843  25.6872
 14.5648  25.4465
 14.6453  25.1821
 14.7258  25.0248
 14.8063  24.8149
 14.8868  24.707
 14.9673  24.7493
 15.0478  24.7469
 15.1283  24.974
 15.2088  26.3569
 15.2892  24.6741
 15.3698  24.4694
 15.4503  24.3915
 15.5308  24.2916
 15.6113  24.3571
 15.6918  24.4279
 15.7723  24.4209
 15.8528  24.3925
 15.9332  24.5749
 16.0138  24.5975
 16.0943  24.4721
 16.1748  24.6809
 16.2553  25.1402
 16.3358  24.803
 16.4163  24.7605
 16.4967  24.5512
 16.5773  24.4647
 16.6578  24.3405
 16.7383  24.4269
 16.8188  24.3568
 16.8992  24.2933
 16.9798  24.1345
 17.0603  24.0064
 17.1408  24.1336
 17.2213  24.1027
 17.3017  23.9751
 17.3823  23.9282
 17.4628  23.8828
 17.5433  23.7669
 17.6238  23.7274
 17.7042  23.6889
 17.7847  23.6303
 17.8653  23.633
 17.9458  23.7765
 18.0263  23.923
 18.1068  24.4444
 18.1872  23.6661
 18.2678  23.5187
 18.3483  23.4104
 18.4288  23.3799
 18.5093  23.3796
 18.5897  23.3659
 18.6703  23.3525
 18.7508  23.2712
 18.8313  23.4024
 18.9118  23.3978
 18.9922  23.347
 19.0727  23.3843
 19.1533  23.3312
 19.2338  23.3391
 19.3143  23.4677
 19.3948  23.4907
 19.4752  23.5672
 19.5558  23.5981
 19.6363  23.873
 19.7168  25.053
 19.7973  24.845
 19.8777  25.2141
 19.9582  23.8461
 20.0388  23.5425
 20.1193  23.7531
 20.1998  23.7733
 20.2803  23.5775
 20.3607  23.5536
 20.4413  23.6859
 20.5218  23.5799
 20.6023  23.8107
 20.6828  24.0078
 20.7632  25.1174
 20.8438  23.967
 20.9243  23.9488
 21.0048  23.7993
 21.0853  23.7757
 21.1658  23.7189
 21.2462  23.7019
 21.3268  23.7359
 21.4073  23.7599
 21.4878  23.7288
 21.5683  23.8282
 21.6487  23.9229
 21.7293  23.9267
 21.8098  23.9546
 21.8903  23.89
 21.9708  24.2162
 22.0512  24.4467
 22.1318  24.2137
 22.2123  24.2051
 22.2928  24.2683
 22.3733  24.3518
 22.4538  24.6093
 22.5343  24.6093
 22.6148  24.6692
 22.6953  24.9871
 22.7758  25.1579
 22.8563  25.3994
 22.9367  25.837
 22.9943  26.3832