File: test-data-xrd/xrd-map-34-ID-E/Data_0054.chi
F:\20151113_APS_34IDE\\Brian\Particle1\OCV\Data_0054.tif
2-Theta Angle (Degrees)
Intensity
       2000
 0.07475  0.0000000E+00
 0.15525  0.0000000E+00
 0.23575  0.0000000E+00
 0.31625  0.0000000E+00
 0.39675  0.0000000E+00
 0.47725  0.0000000E+00
 0.55775  0.0000000E+00
 0.63825  0.0000000E+00
 0.71875  0.0000000E+00
 0.79925  0.0000000E+00
 0.87975  0.0000000E+00
 0.96025  0.0000000E+00
 1.04075  0.0000000E+00
 1.12125  0.0000000E+00
 1.20175  0.0000000E+00
 1.28225  0.0000000E+00
 1.36275  0.0000000E+00
 1.44325  0.0000000E+00
 1.52375  0.0000000E+00
 1.60425  0.0000000E+00
 1.68475  0.0000000E+00
 1.76525  0.0000000E+00
 1.84575  0.0000000E+00
 1.92625  0.0000000E+00
 2.00675  0.0000000E+00
 2.08725  0.0000000E+00
 2.16775  0.0000000E+00
 2.24825  0.0000000E+00
 2.32875  0.0000000E+00
 2.40925  0.0000000E+00
 2.48975  0.0000000E+00
 2.57025  0.0000000E+00
 2.65075  0.0000000E+00
 2.73125  0.0000000E+00
 2.81175  0.0000000E+00
 2.89225  34.5801
 2.97275  34.8307
 3.05325  35.4583
 3.13375  35.7671
 3.21425  35.9045
 3.29475  34.7429
 3.37525  34.9231
 3.45575  34.6837
 3.53625  34.4411
 3.61675  33.8813
 3.69725  33.9652
 3.77775  33.1266
 3.85825  32.4813
 3.93875  33.0581
 4.01925  33.291
 4.09975  32.6825
 4.18025  32.4185
 4.26075  32.8402
 4.34125  32.4834
 4.42175  32.662
 4.50225  32.5678
 4.58275  32.8721
 4.66325  33.3586
 4.74375  33.2506
 4.82425  32.6086
 4.90475  33.4056
 4.98525  33.4294
 5.06575  33.6529
 5.14625  34.0139
 5.22675  34.2567
 5.30725  34.4179
 5.38775  34.7282
 5.46825  34.7779
 5.54875  35.3113
 5.62925  35.2058
 5.70975  35.1903
 5.79025  35.6976
 5.87075  35.7699
 5.95125  38.3345
 6.03175  37.7334
 6.11225  36.8323
 6.19275  37.2386
 6.27325  37.4729
 6.35375  37.9966
 6.43425  38.6148
 6.51475  39.4304
 6.59525  39.816
 6.67575  40.4395
 6.75625  41.2184
 6.83675  41.5761
 6.91725  42.1482
 6.99775  42.4279
 7.07825  42.9884
 7.15875  43.2725
 7.23925  43.7396
 7.31975  43.9747
 7.40025  44.0133
 7.48075  44.305
 7.56125  44.3026
 7.64175  44.6477
 7.72225  44.3436
 7.80275  44.22
 7.88325  44.5661
 7.96375  43.8938
 8.04425  43.6382
 8.12475  42.7602
 8.20525  41.9834
 8.28575  40.9982
 8.36625  40.0686
 8.44675  38.9533
 8.52725  38.041
 8.60775  36.7126
 8.68825  35.3428
 8.76875  33.921
 8.84925  32.9242
 8.92975  31.9081
 9.01025  30.7298
 9.09075  29.9332
 9.17125  29.1014
 9.25175  28.1419
 9.33225  27.4609
 9.41275  26.9783
 9.49325  26.4919
 9.57375  25.7906
 9.65425  25.5154
 9.73475  25.1924
 9.81525  24.8416
 9.89575  24.8131
 9.97625  24.3986
 10.0567  24.1041
 10.1373  23.9922
 10.2178  23.6042
 10.2982  23.3785
 10.3788  23.2287
 10.4593  23.1359
 10.5397  22.9762
 10.6203  22.9788
 10.7007  22.8753
 10.7813  22.8719
 10.8618  22.6824
 10.9422  22.693
 11.0228  22.4102
 11.1033  22.3721
 11.1837  22.4111
 11.2643  22.328
 11.3447  22.3645
 11.4253  22.6012
 11.5058  22.492
 11.5862  24.2822
 11.6668  22.7272
 11.7473  22.3421
 11.8277  22.2938
 11.9083  22.2991
 11.9887  22.5954
 12.0693  22.7543
 12.1498  22.69
 12.2302  22.4703
 12.3108  22.5258
 12.3913  22.4836
 12.4718  22.5665
 12.5523  22.4443
 12.6328  22.7549
 12.7133  22.9555
 12.7938  23.034
 12.8742  23.3983
 12.9548  23.7771
 13.0353  23.9521
 13.1158  24.9124
 13.1963  25.4639
 13.2768  26.6261
 13.3573  27.6194
 13.4378  28.5684
 13.5183  29.431
 13.5988  29.6313
 13.6793  29.6013
 13.7598  29.2209
 13.8403  28.8638
 13.9208  29.7492
 14.0013  28.851
 14.0818  27.4476
 14.1623  26.908
 14.2428  26.3551
 14.3233  25.9994
 14.4038  25.8813
 14.4843  25.5319
 14.5648  25.4688
 14.6453  25.3251
 14.7258  25.0804
 14.8063  24.9341
 14.8868  24.7471
 14.9673  24.7343
 15.0478  24.7105
 15.1283  24.6605
 15.2088  25.1781
 15.2892  24.4357
 15.3698  24.3835
 15.4503  24.3998
 15.5308  24.4185
 15.6113  24.5343
 15.6918  24.4225
 15.7723  24.3944
 15.8528  24.4772
 15.9332  24.4235
 16.0138  24.5864
 16.0943  24.5716
 16.1748  24.7852
 16.2553  25.084
 16.3358  24.7432
 16.4163  24.5552
 16.4967  24.436
 16.5773  24.5316
 16.6578  24.3681
 16.7383  24.3953
 16.8188  24.3473
 16.8992  24.203
 16.9798  24.1473
 17.0603  23.9053
 17.1408  23.9098
 17.2213  24.0832
 17.3017  24.0706
 17.3823  23.9398
 17.4628  23.8546
 17.5433  23.7141
 17.6238  23.5605
 17.7042  23.7014
 17.7847  23.6654
 17.8653  23.3302
 17.9458  23.6111
 18.0263  23.7502
 18.1068  23.7207
 18.1872  23.5398
 18.2678  23.3539
 18.3483  23.5108
 18.4288  23.2908
 18.5093  23.3606
 18.5897  23.6562
 18.6703  23.3426
 18.7508  23.2687
 18.8313  23.3216
 18.9118  23.3173
 18.9922  23.3733
 19.0727  23.6145
 19.1533  23.3636
 19.2338  23.3731
 19.3143  23.345
 19.3948  23.3527
 19.4752  23.3933
 19.5558  23.3291
 19.6363  23.4643
 19.7168  24.1444
 19.7973  23.8248
 19.8777  23.9843
 19.9582  23.5356
 20.0388  23.4269
 20.1193  23.4688
 20.1998  23.4675
 20.2803  23.4353
 20.3607  23.4893
 20.4413  23.4451
 20.5218  23.3772
 20.6023  23.6408
 20.6828  23.7089
 20.7632  24.0198
 20.8438  23.6241
 20.9243  23.6939
 21.0048  23.6083
 21.0853  23.6189
 21.1658  23.5514
 21.2462  23.7141
 21.3268  23.7127
 21.4073  23.6352
 21.4878  23.7014
 21.5683  23.7007
 21.6487  23.8858
 21.7293  23.8951
 21.8098  23.8506
 21.8903  24.061
 21.9708  23.9947
 22.0512  24.1734
 22.1318  24.1368
 22.2123  24.1478
 22.2928  24.1975
 22.3733  24.234
 22.4538  24.3493
 22.5343  24.5498
 22.6148  24.649
 22.6953  24.948
 22.7758  25.174
 22.8563  25.216
 22.9367  25.6514
 22.9943  25.9846