File: test-data-xrd/xrd-map-34-ID-E/Data_0072.chi
F:\20151113_APS_34IDE\\Brian\Particle1\OCV\Data_0072.tif
2-Theta Angle (Degrees)
Intensity
       2000
 0.07475  0.0000000E+00
 0.15525  0.0000000E+00
 0.23575  0.0000000E+00
 0.31625  0.0000000E+00
 0.39675  0.0000000E+00
 0.47725  0.0000000E+00
 0.55775  0.0000000E+00
 0.63825  0.0000000E+00
 0.71875  0.0000000E+00
 0.79925  0.0000000E+00
 0.87975  0.0000000E+00
 0.96025  0.0000000E+00
 1.04075  0.0000000E+00
 1.12125  0.0000000E+00
 1.20175  0.0000000E+00
 1.28225  0.0000000E+00
 1.36275  0.0000000E+00
 1.44325  0.0000000E+00
 1.52375  0.0000000E+00
 1.60425  0.0000000E+00
 1.68475  0.0000000E+00
 1.76525  0.0000000E+00
 1.84575  0.0000000E+00
 1.92625  0.0000000E+00
 2.00675  0.0000000E+00
 2.08725  0.0000000E+00
 2.16775  0.0000000E+00
 2.24825  0.0000000E+00
 2.32875  0.0000000E+00
 2.40925  0.0000000E+00
 2.48975  0.0000000E+00
 2.57025  0.0000000E+00
 2.65075  0.0000000E+00
 2.73125  0.0000000E+00
 2.81175  0.0000000E+00
 2.89225  34.7408
 2.97275  35.294
 3.05325  35.3619
 3.13375  34.7635
 3.21425  35.493
 3.29475  35.7522
 3.37525  34.8761
 3.45575  34.3586
 3.53625  33.5018
 3.61675  32.9738
 3.69725  32.6437
 3.77775  32.6802
 3.85825  32.219
 3.93875  32.6111
 4.01925  32.6409
 4.09975  31.8854
 4.18025  31.6147
 4.26075  31.8008
 4.34125  32.1379
 4.42175  32.2541
 4.50225  32.2101
 4.58275  32.2816
 4.66325  32.6713
 4.74375  32.2991
 4.82425  32.4718
 4.90475  32.6065
 4.98525  32.677
 5.06575  32.8371
 5.14625  33.2068
 5.22675  33.1223
 5.30725  33.6255
 5.38775  34.4021
 5.46825  34.629
 5.54875  34.8729
 5.62925  35.0225
 5.70975  35.2971
 5.79025  35.5809
 5.87075  36.2408
 5.95125  48.7733
 6.03175  49.4018
 6.11225  37.6995
 6.19275  36.9919
 6.27325  37.3547
 6.35375  37.7431
 6.43425  37.9828
 6.51475  38.9588
 6.59525  39.0883
 6.67575  39.9038
 6.75625  40.3548
 6.83675  41.2571
 6.91725  41.6382
 6.99775  41.7916
 7.07825  42.4286
 7.15875  42.8414
 7.23925  42.9977
 7.31975  43.3098
 7.40025  43.4351
 7.48075  43.5928
 7.56125  44.0567
 7.64175  43.7901
 7.72225  43.686
 7.80275  43.3598
 7.88325  43.3572
 7.96375  43.1896
 8.04425  42.7557
 8.12475  42.1084
 8.20525  41.2184
 8.28575  40.6165
 8.36625  39.7542
 8.44675  38.5235
 8.52725  37.4794
 8.60775  36.1035
 8.68825  34.8465
 8.76875  33.6132
 8.84925  32.6758
 8.92975  31.4399
 9.01025  30.5343
 9.09075  29.325
 9.17125  28.7791
 9.25175  28.0064
 9.33225  27.4337
 9.41275  26.8492
 9.49325  26.3547
 9.57375  25.8859
 9.65425  25.4894
 9.73475  25.1125
 9.81525  24.916
 9.89575  24.499
 9.97625  24.3594
 10.0567  23.9343
 10.1373  23.775
 10.2178  23.5658
 10.2982  23.4477
 10.3788  23.1321
 10.4593  23.0388
 10.5397  23.1094
 10.6203  22.9464
 10.7007  22.7033
 10.7813  22.7536
 10.8618  22.6546
 10.9422  22.6068
 11.0228  22.5263
 11.1033  22.4196
 11.1837  22.4784
 11.2643  22.2619
 11.3447  22.3809
 11.4253  22.9363
 11.5058  22.9822
 11.5862  27.969
 11.6668  23.9798
 11.7473  22.558
 11.8277  22.6799
 11.9083  23.3527
 11.9887  30.1985
 12.0693  25.9752
 12.1498  24.8451
 12.2302  22.6337
 12.3108  22.6137
 12.3913  22.574
 12.4718  22.5446
 12.5523  22.694
 12.6328  22.7422
 12.7133  22.8106
 12.7938  23.0557
 12.8742  23.2888
 12.9548  23.7321
 13.0353  24.2059
 13.1158  24.8882
 13.1963  25.6134
 13.2768  26.5946
 13.3573  27.4433
 13.4378  28.3905
 13.5183  29.2667
 13.5988  29.6507
 13.6793  29.8943
 13.7598  29.8792
 13.8403  30.9703
 13.9208  48.5266
 14.0013  62.9179
 14.0818  29.5183
 14.1623  27.4868
 14.2428  26.8926
 14.3233  26.4303
 14.4038  25.919
 14.4843  25.6269
 14.5648  25.5964
 14.6453  25.3033
 14.7258  24.9612
 14.8063  24.9558
 14.8868  24.8268
 14.9673  24.7416
 15.0478  24.9664
 15.1283  25.1228
 15.2088  27.6477
 15.2892  24.8133
 15.3698  24.5156
 15.4503  24.5126
 15.5308  24.4734
 15.6113  24.4508
 15.6918  24.487
 15.7723  24.4801
 15.8528  24.5574
 15.9332  24.5332
 16.0138  24.5755
 16.0943  24.5778
 16.1748  24.8007
 16.2553  25.8315
 16.3358  24.9423
 16.4163  24.5546
 16.4967  24.6342
 16.5773  24.5057
 16.6578  24.5893
 16.7383  24.4968
 16.8188  24.4727
 16.8992  24.3497
 16.9798  24.2869
 17.0603  24.1224
 17.1408  24.1746
 17.2213  24.222
 17.3017  24.065
 17.3823  24.0089
 17.4628  24.1011
 17.5433  23.8768
 17.6238  23.8553
 17.7042  23.9609
 17.7847  23.82
 17.8653  23.7829
 17.9458  24.0672
 18.0263  25.1013
 18.1068  29.2086
 18.1872  24.8299
 18.2678  23.6832
 18.3483  23.8183
 18.4288  23.713
 18.5093  23.5973
 18.5897  23.5255
 18.6703  23.4245
 18.7508  23.5442
 18.8313  23.5483
 18.9118  23.5312
 18.9922  23.4107
 19.0727  23.6286
 19.1533  23.6141
 19.2338  23.487
 19.3143  23.6263
 19.3948  23.7013
 19.4752  23.769
 19.5558  23.8361
 19.6363  24.3226
 19.7168  27.7142
 19.7973  26.9341
 19.8777  32.5504
 19.9582  24.7635
 20.0388  24.1226
 20.1193  23.9573
 20.1998  23.782
 20.2803  23.7844
 20.3607  23.7694
 20.4413  23.7978
 20.5218  23.6995
 20.6023  24.0609
 20.6828  24.4985
 20.7632  28.4632
 20.8438  25.4897
 20.9243  24.1534
 21.0048  24.0243
 21.0853  24.063
 21.1658  23.879
 21.2462  23.9691
 21.3268  23.9585
 21.4073  24.0019
 21.4878  24.0289
 21.5683  23.9562
 21.6487  24.0371
 21.7293  24.1715
 21.8098  24.1248
 21.8903  24.2809
 21.9708  24.2182
 22.0512  24.3235
 22.1318  24.3163
 22.2123  24.4777
 22.2928  24.4645
 22.3733  24.4859
 22.4538  24.6566
 22.5343  24.849
 22.6148  24.9021
 22.6953  25.1942
 22.7758  25.3823
 22.8563  25.627
 22.9367  25.9312
 22.9943  26.4331