File: test-data-xrd/xrd-map-34-ID-E/Data_0070.chi
F:\20151113_APS_34IDE\\Brian\Particle1\OCV\Data_0070.tif
2-Theta Angle (Degrees)
Intensity
       2000
 0.07475  0.0000000E+00
 0.15525  0.0000000E+00
 0.23575  0.0000000E+00
 0.31625  0.0000000E+00
 0.39675  0.0000000E+00
 0.47725  0.0000000E+00
 0.55775  0.0000000E+00
 0.63825  0.0000000E+00
 0.71875  0.0000000E+00
 0.79925  0.0000000E+00
 0.87975  0.0000000E+00
 0.96025  0.0000000E+00
 1.04075  0.0000000E+00
 1.12125  0.0000000E+00
 1.20175  0.0000000E+00
 1.28225  0.0000000E+00
 1.36275  0.0000000E+00
 1.44325  0.0000000E+00
 1.52375  0.0000000E+00
 1.60425  0.0000000E+00
 1.68475  0.0000000E+00
 1.76525  0.0000000E+00
 1.84575  0.0000000E+00
 1.92625  0.0000000E+00
 2.00675  0.0000000E+00
 2.08725  0.0000000E+00
 2.16775  0.0000000E+00
 2.24825  0.0000000E+00
 2.32875  0.0000000E+00
 2.40925  0.0000000E+00
 2.48975  0.0000000E+00
 2.57025  0.0000000E+00
 2.65075  0.0000000E+00
 2.73125  0.0000000E+00
 2.81175  0.0000000E+00
 2.89225  36.0211
 2.97275  35.1459
 3.05325  35.0273
 3.13375  34.4871
 3.21425  35.684
 3.29475  34.7719
 3.37525  33.9458
 3.45575  34.0793
 3.53625  33.5237
 3.61675  33.0332
 3.69725  32.9172
 3.77775  33.0693
 3.85825  32.029
 3.93875  32.0627
 4.01925  32.7746
 4.09975  31.7889
 4.18025  31.1341
 4.26075  31.9147
 4.34125  32.0558
 4.42175  32.0441
 4.50225  32.2953
 4.58275  32.0371
 4.66325  32.5034
 4.74375  32.2775
 4.82425  32.736
 4.90475  32.6399
 4.98525  32.8886
 5.06575  32.8992
 5.14625  33.4078
 5.22675  34.1747
 5.30725  33.6681
 5.38775  34.2908
 5.46825  34.2755
 5.54875  34.8643
 5.62925  35.1988
 5.70975  35.6896
 5.79025  36.1267
 5.87075  37.109
 5.95125  60.0643
 6.03175  56.544
 6.11225  37.614
 6.19275  37.1774
 6.27325  37.3852
 6.35375  37.8808
 6.43425  38.1001
 6.51475  38.9447
 6.59525  39.5242
 6.67575  40.1659
 6.75625  40.3294
 6.83675  40.9414
 6.91725  41.7336
 6.99775  42.1426
 7.07825  42.3062
 7.15875  42.909
 7.23925  42.9462
 7.31975  43.4666
 7.40025  43.7589
 7.48075  44.0178
 7.56125  43.8005
 7.64175  43.88
 7.72225  44.0127
 7.80275  43.6792
 7.88325  43.6705
 7.96375  43.2551
 8.04425  42.7202
 8.12475  42.2158
 8.20525  41.4734
 8.28575  40.5301
 8.36625  39.353
 8.44675  38.4931
 8.52725  37.3384
 8.60775  36.0822
 8.68825  34.9337
 8.76875  33.6267
 8.84925  32.5885
 8.92975  31.5628
 9.01025  30.5962
 9.09075  29.6383
 9.17125  28.9632
 9.25175  28.1444
 9.33225  27.3101
 9.41275  26.8657
 9.49325  26.3993
 9.57375  25.8558
 9.65425  25.4049
 9.73475  25.1924
 9.81525  25.0659
 9.89575  24.5081
 9.97625  24.3038
 10.0567  24.1404
 10.1373  23.899
 10.2178  23.7927
 10.2982  23.4831
 10.3788  23.3758
 10.4593  23.3403
 10.5397  23.0986
 10.6203  22.8721
 10.7007  23.0402
 10.7813  22.7912
 10.8618  22.6723
 10.9422  22.7094
 11.0228  22.6352
 11.1033  22.5267
 11.1837  22.5083
 11.2643  22.4604
 11.3447  22.5092
 11.4253  22.8071
 11.5058  22.974
 11.5862  29.9943
 11.6668  23.9359
 11.7473  22.7198
 11.8277  22.6691
 11.9083  22.6319
 11.9887  24.304
 12.0693  24.4949
 12.1498  26.2551
 12.2302  22.6
 12.3108  22.6026
 12.3913  22.6342
 12.4718  22.5316
 12.5523  22.6739
 12.6328  22.7769
 12.7133  22.9268
 12.7938  23.1675
 12.8742  23.4293
 12.9548  23.6898
 13.0353  24.2183
 13.1158  24.8589
 13.1963  25.5174
 13.2768  26.6901
 13.3573  27.6464
 13.4378  28.5142
 13.5183  29.3416
 13.5988  29.7613
 13.6793  29.8074
 13.7598  29.6316
 13.8403  30.1436
 13.9208  43.7095
 14.0013  41.0941
 14.0818  28.3868
 14.1623  27.3332
 14.2428  26.6863
 14.3233  26.3277
 14.4038  25.9817
 14.4843  25.8506
 14.5648  25.6827
 14.6453  25.4833
 14.7258  26.0634
 14.8063  24.9995
 14.8868  24.8945
 14.9673  24.9113
 15.0478  25.0584
 15.1283  26.1531
 15.2088  39.233
 15.2892  25.9111
 15.3698  24.954
 15.4503  24.7479
 15.5308  24.939
 15.6113  24.6195
 15.6918  24.5156
 15.7723  24.636
 15.8528  24.724
 15.9332  24.66
 16.0138  24.6769
 16.0943  24.9619
 16.1748  24.8297
 16.2553  26.497
 16.3358  25.0561
 16.4163  24.8284
 16.4967  24.7772
 16.5773  24.5764
 16.6578  24.4522
 16.7383  24.5567
 16.8188  24.4949
 16.8992  24.397
 16.9798  24.39
 17.0603  24.1599
 17.1408  24.2559
 17.2213  24.3276
 17.3017  24.1887
 17.3823  24.1212
 17.4628  24.0291
 17.5433  24.0223
 17.6238  24.0857
 17.7042  23.9641
 17.7847  24.2172
 17.8653  24.0661
 17.9458  24.4853
 18.0263  27.5171
 18.1068  41.589
 18.1872  26.1552
 18.2678  24.4654
 18.3483  24.4776
 18.4288  23.9505
 18.5093  23.7932
 18.5897  23.7721
 18.6703  23.4952
 18.7508  23.6052
 18.8313  23.577
 18.9118  23.5252
 18.9922  23.5672
 19.0727  23.6034
 19.1533  23.6063
 19.2338  23.614
 19.3143  23.7269
 19.3948  23.7136
 19.4752  23.7944
 19.5558  23.9909
 19.6363  24.7081
 19.7168  29.7706
 19.7973  27.0024
 19.8777  33.3607
 19.9582  25.1256
 20.0388  24.1252
 20.1193  23.9351
 20.1998  23.9128
 20.2803  23.84
 20.3607  23.8105
 20.4413  24.0129
 20.5218  23.7942
 20.6023  23.8766
 20.6828  24.186
 20.7632  26.3324
 20.8438  24.4988
 20.9243  24.0109
 21.0048  23.9088
 21.0853  24.0623
 21.1658  23.8682
 21.2462  23.9451
 21.3268  23.9161
 21.4073  24.0138
 21.4878  23.9884
 21.5683  24.0221
 21.6487  24.1939
 21.7293  24.2001
 21.8098  24.1479
 21.8903  24.1918
 21.9708  24.2975
 22.0512  24.3903
 22.1318  24.4412
 22.2123  24.5053
 22.2928  24.5063
 22.3733  24.6386
 22.4538  24.7646
 22.5343  24.7972
 22.6148  24.9658
 22.6953  25.2017
 22.7758  25.3198
 22.8563  25.6434
 22.9367  26.0631
 22.9943  26.627