File: test-data-xrd/xrd-map-34-ID-E/Data_0114.chi
F:\20151113_APS_34IDE\\Brian\Particle1\OCV\Data_0114.tif
2-Theta Angle (Degrees)
Intensity
       2000
 0.07475  0.0000000E+00
 0.15525  0.0000000E+00
 0.23575  0.0000000E+00
 0.31625  0.0000000E+00
 0.39675  0.0000000E+00
 0.47725  0.0000000E+00
 0.55775  0.0000000E+00
 0.63825  0.0000000E+00
 0.71875  0.0000000E+00
 0.79925  0.0000000E+00
 0.87975  0.0000000E+00
 0.96025  0.0000000E+00
 1.04075  0.0000000E+00
 1.12125  0.0000000E+00
 1.20175  0.0000000E+00
 1.28225  0.0000000E+00
 1.36275  0.0000000E+00
 1.44325  0.0000000E+00
 1.52375  0.0000000E+00
 1.60425  0.0000000E+00
 1.68475  0.0000000E+00
 1.76525  0.0000000E+00
 1.84575  0.0000000E+00
 1.92625  0.0000000E+00
 2.00675  0.0000000E+00
 2.08725  0.0000000E+00
 2.16775  0.0000000E+00
 2.24825  0.0000000E+00
 2.32875  0.0000000E+00
 2.40925  0.0000000E+00
 2.48975  0.0000000E+00
 2.57025  0.0000000E+00
 2.65075  0.0000000E+00
 2.73125  0.0000000E+00
 2.81175  0.0000000E+00
 2.89225  35.372
 2.97275  34.2038
 3.05325  35.0267
 3.13375  34.3352
 3.21425  35.7586
 3.29475  34.5848
 3.37525  34.0278
 3.45575  33.8104
 3.53625  33.1485
 3.61675  32.6991
 3.69725  32.6402
 3.77775  32.5922
 3.85825  31.9689
 3.93875  32.4363
 4.01925  32.4614
 4.09975  32.5442
 4.18025  32.0514
 4.26075  31.9004
 4.34125  32.0107
 4.42175  32.263
 4.50225  32.4675
 4.58275  32.2107
 4.66325  32.8313
 4.74375  32.0648
 4.82425  32.359
 4.90475  32.6105
 4.98525  32.4414
 5.06575  33.2526
 5.14625  33.2104
 5.22675  33.2727
 5.30725  33.3409
 5.38775  33.8041
 5.46825  34.439
 5.54875  34.4253
 5.62925  34.7756
 5.70975  35.0687
 5.79025  35.4061
 5.87075  36.0059
 5.95125  45.2655
 6.03175  44.4353
 6.11225  36.6107
 6.19275  36.4656
 6.27325  37.0088
 6.35375  37.5284
 6.43425  38.1686
 6.51475  38.5677
 6.59525  38.6889
 6.67575  39.7389
 6.75625  40.2521
 6.83675  41.0281
 6.91725  41.4769
 6.99775  41.6849
 7.07825  41.9195
 7.15875  42.5544
 7.23925  43.0424
 7.31975  43.2135
 7.40025  43.2089
 7.48075  43.5015
 7.56125  43.5898
 7.64175  43.8022
 7.72225  43.7836
 7.80275  43.3055
 7.88325  43.2043
 7.96375  43.0347
 8.04425  42.6139
 8.12475  41.7077
 8.20525  40.9198
 8.28575  40.2511
 8.36625  39.3091
 8.44675  38.3743
 8.52725  36.9061
 8.60775  35.6728
 8.68825  34.6067
 8.76875  33.3799
 8.84925  32.5666
 8.92975  31.3358
 9.01025  30.2963
 9.09075  29.5124
 9.17125  28.848
 9.25175  27.8087
 9.33225  27.0712
 9.41275  26.7604
 9.49325  26.2591
 9.57375  25.8299
 9.65425  25.2151
 9.73475  24.8022
 9.81525  24.5246
 9.89575  24.2319
 9.97625  24.1013
 10.0567  23.8397
 10.1373  23.6898
 10.2178  23.6799
 10.2982  23.3202
 10.3788  23.1885
 10.4593  23.0144
 10.5397  22.8544
 10.6203  22.7535
 10.7007  22.7117
 10.7813  22.5997
 10.8618  22.473
 10.9422  22.4174
 11.0228  22.4923
 11.1033  22.3877
 11.1837  22.2204
 11.2643  22.2388
 11.3447  22.3865
 11.4253  22.5468
 11.5058  22.8373
 11.5862  30.7036
 11.6668  23.8836
 11.7473  22.3058
 11.8277  22.3512
 11.9083  22.3938
 11.9887  23.0032
 12.0693  23.6818
 12.1498  24.6111
 12.2302  22.3903
 12.3108  22.4525
 12.3913  22.3793
 12.4718  22.5036
 12.5523  22.4733
 12.6328  22.7193
 12.7133  22.724
 12.7938  22.938
 12.8742  23.0861
 12.9548  23.4004
 13.0353  23.9728
 13.1158  24.5075
 13.1963  25.4493
 13.2768  26.2686
 13.3573  27.2406
 13.4378  28.3304
 13.5183  29.0912
 13.5988  29.2224
 13.6793  29.4006
 13.7598  28.9969
 13.8403  28.8655
 13.9208  31.3843
 14.0013  31.7901
 14.0818  27.3685
 14.1623  26.882
 14.2428  26.1665
 14.3233  25.9364
 14.4038  25.6662
 14.4843  25.5261
 14.5648  25.3564
 14.6453  25.0979
 14.7258  24.9602
 14.8063  24.8387
 14.8868  24.5549
 14.9673  24.6491
 15.0478  24.541
 15.1283  24.9258
 15.2088  26.4931
 15.2892  24.5808
 15.3698  24.2918
 15.4503  24.1999
 15.5308  24.3667
 15.6113  24.3815
 15.6918  24.2777
 15.7723  24.1771
 15.8528  24.227
 15.9332  24.3266
 16.0138  24.357
 16.0943  24.5761
 16.1748  24.678
 16.2553  26.6284
 16.3358  24.9033
 16.4163  24.5212
 16.4967  24.3945
 16.5773  24.2908
 16.6578  24.389
 16.7383  24.244
 16.8188  24.1999
 16.8992  24.0986
 16.9798  24.1208
 17.0603  23.8391
 17.1408  24.0496
 17.2213  23.9638
 17.3017  23.844
 17.3823  23.788
 17.4628  23.8181
 17.5433  23.5352
 17.6238  23.6383
 17.7042  23.5305
 17.7847  23.5417
 17.8653  23.692
 17.9458  23.645
 18.0263  25.822
 18.1068  26.2382
 18.1872  23.9415
 18.2678  23.5016
 18.3483  23.4544
 18.4288  23.4352
 18.5093  23.3636
 18.5897  23.2782
 18.6703  23.2841
 18.7508  23.2654
 18.8313  23.3482
 18.9118  23.2391
 18.9922  23.2859
 19.0727  23.3498
 19.1533  23.3372
 19.2338  23.2865
 19.3143  23.3848
 19.3948  23.4299
 19.4752  23.3925
 19.5558  23.3832
 19.6363  23.896
 19.7168  25.8784
 19.7973  25.1941
 19.8777  27.1642
 19.9582  23.9359
 20.0388  23.5704
 20.1193  23.5439
 20.1998  23.447
 20.2803  23.4612
 20.3607  23.452
 20.4413  23.4411
 20.5218  23.5518
 20.6023  23.6941
 20.6828  24.0843
 20.7632  26.4245
 20.8438  24.0308
 20.9243  23.8679
 21.0048  23.6266
 21.0853  23.6547
 21.1658  23.6077
 21.2462  23.6531
 21.3268  23.6601
 21.4073  23.7188
 21.4878  23.8019
 21.5683  23.7016
 21.6487  23.8054
 21.7293  23.9476
 21.8098  23.8771
 21.8903  23.8881
 21.9708  24.0194
 22.0512  24.1636
 22.1318  24.1018
 22.2123  24.0101
 22.2928  24.0977
 22.3733  24.2114
 22.4538  24.397
 22.5343  24.521
 22.6148  24.557
 22.6953  24.8201
 22.7758  25.0696
 22.8563  25.3684
 22.9367  25.798
 22.9943  26.1112