File: test-data-xrd/xrd-map-34-ID-E/Data_0123.chi
F:\20151113_APS_34IDE\\Brian\Particle1\OCV\Data_0123.tif
2-Theta Angle (Degrees)
Intensity
       2000
 0.07475  0.0000000E+00
 0.15525  0.0000000E+00
 0.23575  0.0000000E+00
 0.31625  0.0000000E+00
 0.39675  0.0000000E+00
 0.47725  0.0000000E+00
 0.55775  0.0000000E+00
 0.63825  0.0000000E+00
 0.71875  0.0000000E+00
 0.79925  0.0000000E+00
 0.87975  0.0000000E+00
 0.96025  0.0000000E+00
 1.04075  0.0000000E+00
 1.12125  0.0000000E+00
 1.20175  0.0000000E+00
 1.28225  0.0000000E+00
 1.36275  0.0000000E+00
 1.44325  0.0000000E+00
 1.52375  0.0000000E+00
 1.60425  0.0000000E+00
 1.68475  0.0000000E+00
 1.76525  0.0000000E+00
 1.84575  0.0000000E+00
 1.92625  0.0000000E+00
 2.00675  0.0000000E+00
 2.08725  0.0000000E+00
 2.16775  0.0000000E+00
 2.24825  0.0000000E+00
 2.32875  0.0000000E+00
 2.40925  0.0000000E+00
 2.48975  0.0000000E+00
 2.57025  0.0000000E+00
 2.65075  0.0000000E+00
 2.73125  0.0000000E+00
 2.81175  0.0000000E+00
 2.89225  35.5454
 2.97275  39.145
 3.05325  35.3642
 3.13375  36.2229
 3.21425  36.2237
 3.29475  34.4664
 3.37525  36.5661
 3.45575  33.9367
 3.53625  32.76
 3.61675  34.0358
 3.69725  33.383
 3.77775  33.2427
 3.85825  32.9632
 3.93875  32.7794
 4.01925  32.6158
 4.09975  32.7676
 4.18025  32.1501
 4.26075  32.7319
 4.34125  32.7096
 4.42175  32.6695
 4.50225  32.3168
 4.58275  32.4436
 4.66325  33.0533
 4.74375  32.9967
 4.82425  32.5909
 4.90475  32.8931
 4.98525  33.1626
 5.06575  33.2737
 5.14625  34.0979
 5.22675  34.0641
 5.30725  34.4418
 5.38775  34.5548
 5.46825  34.5224
 5.54875  35.0986
 5.62925  35.6849
 5.70975  35.5329
 5.79025  35.7655
 5.87075  36.2116
 5.95125  40.5343
 6.03175  40.7945
 6.11225  36.9872
 6.19275  37.1207
 6.27325  37.5117
 6.35375  38.0957
 6.43425  38.4517
 6.51475  39.1401
 6.59525  39.9547
 6.67575  40.3413
 6.75625  41.2197
 6.83675  41.5224
 6.91725  42.0895
 6.99775  42.3742
 7.07825  43.1403
 7.15875  43.3249
 7.23925  43.7028
 7.31975  44.0511
 7.40025  44.5521
 7.48075  44.6877
 7.56125  44.6935
 7.64175  44.708
 7.72225  44.7383
 7.80275  44.3575
 7.88325  44.2102
 7.96375  44.0423
 8.04425  43.6833
 8.12475  42.9719
 8.20525  42.3694
 8.28575  41.3526
 8.36625  40.248
 8.44675  39.1447
 8.52725  37.9697
 8.60775  36.5856
 8.68825  35.5349
 8.76875  34.2499
 8.84925  33.148
 8.92975  31.8535
 9.01025  31.0036
 9.09075  30.0711
 9.17125  29.2748
 9.25175  28.298
 9.33225  27.6575
 9.41275  27.2345
 9.49325  26.8505
 9.57375  26.2005
 9.65425  25.7355
 9.73475  25.295
 9.81525  25.1147
 9.89575  24.8732
 9.97625  24.4669
 10.0567  24.2148
 10.1373  23.9539
 10.2178  24.114
 10.2982  23.7882
 10.3788  23.5987
 10.4593  23.4134
 10.5397  23.2667
 10.6203  23.2898
 10.7007  23.1649
 10.7813  22.9731
 10.8618  22.8116
 10.9422  22.8805
 11.0228  22.6571
 11.1033  22.6763
 11.1837  22.5795
 11.2643  22.5011
 11.3447  22.5457
 11.4253  22.6968
 11.5058  22.6322
 11.5862  24.2899
 11.6668  22.844
 11.7473  22.5543
 11.8277  22.548
 11.9083  22.3948
 11.9887  22.8738
 12.0693  23.0183
 12.1498  23.0453
 12.2302  22.6189
 12.3108  22.7136
 12.3913  22.6545
 12.4718  22.6716
 12.5523  22.7306
 12.6328  22.8981
 12.7133  23.0501
 12.7938  23.7175
 12.8742  23.7088
 12.9548  23.7134
 13.0353  24.1561
 13.1158  24.9179
 13.1963  25.5769
 13.2768  26.803
 13.3573  27.9719
 13.4378  28.7118
 13.5183  29.5474
 13.5988  29.7691
 13.6793  30.0096
 13.7598  29.4643
 13.8403  29.1045
 13.9208  30.4973
 14.0013  29.8316
 14.0818  27.5054
 14.1623  27.0883
 14.2428  26.4392
 14.3233  26.0198
 14.4038  25.9562
 14.4843  25.7327
 14.5648  25.5369
 14.6453  25.4159
 14.7258  25.1875
 14.8063  24.876
 14.8868  24.9246
 14.9673  24.66
 15.0478  24.8753
 15.1283  24.8993
 15.2088  25.2046
 15.2892  24.5784
 15.3698  24.4416
 15.4503  24.4235
 15.5308  24.4481
 15.6113  24.5841
 15.6918  24.5858
 15.7723  24.6641
 15.8528  24.5331
 15.9332  24.5409
 16.0138  24.6664
 16.0943  24.8004
 16.1748  24.9633
 16.2553  28.469
 16.3358  25.092
 16.4163  24.7804
 16.4967  24.6957
 16.5773  24.6179
 16.6578  24.414
 16.7383  24.5319
 16.8188  24.4461
 16.8992  24.235
 16.9798  24.1871
 17.0603  24.0908
 17.1408  24.0327
 17.2213  24.0467
 17.3017  24.1618
 17.3823  23.8973
 17.4628  24.0009
 17.5433  23.9812
 17.6238  24.0213
 17.7042  23.7885
 17.7847  23.7458
 17.8653  23.5228
 17.9458  23.6729
 18.0263  23.8174
 18.1068  24.2017
 18.1872  23.6656
 18.2678  23.5023
 18.3483  23.4337
 18.4288  23.5378
 18.5093  23.492
 18.5897  23.4591
 18.6703  23.4664
 18.7508  23.5288
 18.8313  23.4152
 18.9118  23.4933
 18.9922  23.5069
 19.0727  23.5405
 19.1533  23.5111
 19.2338  23.4876
 19.3143  23.509
 19.3948  23.5377
 19.4752  23.4898
 19.5558  23.5789
 19.6363  23.9529
 19.7168  26.5196
 19.7973  24.5628
 19.8777  24.8683
 19.9582  23.7984
 20.0388  23.7265
 20.1193  23.6654
 20.1998  23.6816
 20.2803  23.6065
 20.3607  23.5592
 20.4413  23.6079
 20.5218  23.5633
 20.6023  23.7558
 20.6828  24.0419
 20.7632  24.7087
 20.8438  23.8705
 20.9243  23.9682
 21.0048  23.8757
 21.0853  23.9536
 21.1658  23.5932
 21.2462  23.8906
 21.3268  23.8116
 21.4073  23.8142
 21.4878  23.8717
 21.5683  23.9655
 21.6487  24.0088
 21.7293  24.1
 21.8098  24.1756
 21.8903  24.1185
 21.9708  24.2207
 22.0512  24.1213
 22.1318  24.3312
 22.2123  24.2683
 22.2928  24.3572
 22.3733  24.337
 22.4538  24.4861
 22.5343  24.6229
 22.6148  24.7837
 22.6953  25.121
 22.7758  25.4032
 22.8563  25.4042
 22.9367  25.8857
 22.9943  26.0725