File: test-data-xrd/xrd-map-34-ID-E/Data_0106.chi
F:\20151113_APS_34IDE\\Brian\Particle1\OCV\Data_0106.tif
2-Theta Angle (Degrees)
Intensity
       2000
 0.07475  0.0000000E+00
 0.15525  0.0000000E+00
 0.23575  0.0000000E+00
 0.31625  0.0000000E+00
 0.39675  0.0000000E+00
 0.47725  0.0000000E+00
 0.55775  0.0000000E+00
 0.63825  0.0000000E+00
 0.71875  0.0000000E+00
 0.79925  0.0000000E+00
 0.87975  0.0000000E+00
 0.96025  0.0000000E+00
 1.04075  0.0000000E+00
 1.12125  0.0000000E+00
 1.20175  0.0000000E+00
 1.28225  0.0000000E+00
 1.36275  0.0000000E+00
 1.44325  0.0000000E+00
 1.52375  0.0000000E+00
 1.60425  0.0000000E+00
 1.68475  0.0000000E+00
 1.76525  0.0000000E+00
 1.84575  0.0000000E+00
 1.92625  0.0000000E+00
 2.00675  0.0000000E+00
 2.08725  0.0000000E+00
 2.16775  0.0000000E+00
 2.24825  0.0000000E+00
 2.32875  0.0000000E+00
 2.40925  0.0000000E+00
 2.48975  0.0000000E+00
 2.57025  0.0000000E+00
 2.65075  0.0000000E+00
 2.73125  0.0000000E+00
 2.81175  0.0000000E+00
 2.89225  34.84
 2.97275  33.993
 3.05325  34.3248
 3.13375  33.7648
 3.21425  35.0983
 3.29475  34.6823
 3.37525  34.4601
 3.45575  34.1189
 3.53625  33.6592
 3.61675  32.8636
 3.69725  33.1181
 3.77775  32.5942
 3.85825  32.2815
 3.93875  32.216
 4.01925  32.4757
 4.09975  32.385
 4.18025  31.9862
 4.26075  31.788
 4.34125  32.1666
 4.42175  32.0214
 4.50225  32.2397
 4.58275  32.2687
 4.66325  32.412
 4.74375  32.2813
 4.82425  32.585
 4.90475  32.7208
 4.98525  32.801
 5.06575  32.8419
 5.14625  33.3583
 5.22675  33.5773
 5.30725  33.661
 5.38775  33.8137
 5.46825  34.1572
 5.54875  34.8381
 5.62925  34.8645
 5.70975  35.2429
 5.79025  35.6655
 5.87075  35.9936
 5.95125  43.7607
 6.03175  42.947
 6.11225  36.705
 6.19275  37.0364
 6.27325  37.1704
 6.35375  37.5065
 6.43425  38.3103
 6.51475  38.6265
 6.59525  39.0308
 6.67575  39.9646
 6.75625  40.3646
 6.83675  40.9813
 6.91725  41.5729
 6.99775  41.8633
 7.07825  42.4484
 7.15875  42.6861
 7.23925  43.0918
 7.31975  43.3724
 7.40025  43.7415
 7.48075  43.7727
 7.56125  43.7847
 7.64175  43.7772
 7.72225  43.9131
 7.80275  43.8118
 7.88325  43.658
 7.96375  43.2624
 8.04425  42.8021
 8.12475  42.3201
 8.20525  41.4307
 8.28575  40.7472
 8.36625  39.3646
 8.44675  38.2385
 8.52725  37.2732
 8.60775  35.9412
 8.68825  35.0002
 8.76875  33.6854
 8.84925  32.6974
 8.92975  31.2889
 9.01025  30.1577
 9.09075  29.5817
 9.17125  28.7362
 9.25175  27.9619
 9.33225  27.3592
 9.41275  26.7232
 9.49325  26.4123
 9.57375  25.8616
 9.65425  25.3554
 9.73475  25.1402
 9.81525  24.935
 9.89575  24.5316
 9.97625  24.1143
 10.0567  24.0011
 10.1373  23.8707
 10.2178  23.5407
 10.2982  23.4101
 10.3788  23.3131
 10.4593  22.9897
 10.5397  22.8845
 10.6203  22.8575
 10.7007  22.8672
 10.7813  22.6872
 10.8618  22.6244
 10.9422  22.4635
 11.0228  22.3754
 11.1033  22.3517
 11.1837  22.3375
 11.2643  22.2672
 11.3447  22.3582
 11.4253  22.5027
 11.5058  22.6548
 11.5862  24.7754
 11.6668  22.9245
 11.7473  22.2168
 11.8277  22.3542
 11.9083  22.3782
 11.9887  22.8694
 12.0693  23.5458
 12.1498  23.4134
 12.2302  22.4098
 12.3108  22.5202
 12.3913  22.4873
 12.4718  22.728
 12.5523  22.4447
 12.6328  22.6777
 12.7133  22.8033
 12.7938  22.7761
 12.8742  23.1637
 12.9548  23.6388
 13.0353  23.9979
 13.1158  24.7974
 13.1963  25.4007
 13.2768  26.4555
 13.3573  27.5827
 13.4378  28.4989
 13.5183  29.1881
 13.5988  29.5063
 13.6793  29.466
 13.7598  29.288
 13.8403  29.6442
 13.9208  39.4758
 14.0013  38.1234
 14.0818  28.1105
 14.1623  27.0836
 14.2428  26.4862
 14.3233  25.9662
 14.4038  25.9728
 14.4843  25.5531
 14.5648  25.4905
 14.6453  25.2935
 14.7258  25.192
 14.8063  24.9077
 14.8868  24.8258
 14.9673  24.5878
 15.0478  24.6758
 15.1283  25.0707
 15.2088  27.3758
 15.2892  24.8558
 15.3698  24.4846
 15.4503  24.4163
 15.5308  24.177
 15.6113  24.3836
 15.6918  24.4278
 15.7723  24.4555
 15.8528  24.3769
 15.9332  24.3725
 16.0138  24.3825
 16.0943  24.5923
 16.1748  24.6807
 16.2553  25.6188
 16.3358  24.8432
 16.4163  24.4372
 16.4967  24.5908
 16.5773  24.3162
 16.6578  24.7781
 16.7383  24.39
 16.8188  24.3562
 16.8992  24.229
 16.9798  24.1648
 17.0603  23.9445
 17.1408  24.1868
 17.2213  23.9445
 17.3017  23.9482
 17.3823  23.7949
 17.4628  23.7477
 17.5433  23.7186
 17.6238  23.7299
 17.7042  23.7234
 17.7847  23.5968
 17.8653  23.6501
 17.9458  23.6428
 18.0263  23.9866
 18.1068  24.4739
 18.1872  23.7236
 18.2678  23.3543
 18.3483  23.3948
 18.4288  23.3766
 18.5093  23.2939
 18.5897  23.3484
 18.6703  23.3699
 18.7508  23.3586
 18.8313  23.2864
 18.9118  23.2738
 18.9922  23.3839
 19.0727  23.3943
 19.1533  23.374
 19.2338  23.3588
 19.3143  23.4288
 19.3948  23.4288
 19.4752  23.5763
 19.5558  23.7007
 19.6363  24.1727
 19.7168  27.8051
 19.7973  25.5552
 19.8777  26.8114
 19.9582  23.886
 20.0388  23.6034
 20.1193  23.6869
 20.1998  23.5333
 20.2803  23.4991
 20.3607  23.4872
 20.4413  23.6056
 20.5218  23.5575
 20.6023  23.7011
 20.6828  24.4478
 20.7632  27.5019
 20.8438  24.3237
 20.9243  23.9425
 21.0048  23.8498
 21.0853  23.7395
 21.1658  23.6895
 21.2462  23.6597
 21.3268  23.6859
 21.4073  23.7384
 21.4878  23.7826
 21.5683  23.789
 21.6487  23.9209
 21.7293  23.8385
 21.8098  24.0998
 21.8903  23.9629
 21.9708  24.0929
 22.0512  24.0802
 22.1318  24.1642
 22.2123  24.1455
 22.2928  24.2279
 22.3733  24.3324
 22.4538  24.4257
 22.5343  24.5878
 22.6148  24.7428
 22.6953  25.0155
 22.7758  25.1489
 22.8563  25.2979
 22.9367  25.8487
 22.9943  26.2999