File: test-data-xrd/xrd-map-34-ID-E/Data_0115.chi
F:\20151113_APS_34IDE\\Brian\Particle1\OCV\Data_0115.tif
2-Theta Angle (Degrees)
Intensity
       2000
 0.07475  0.0000000E+00
 0.15525  0.0000000E+00
 0.23575  0.0000000E+00
 0.31625  0.0000000E+00
 0.39675  0.0000000E+00
 0.47725  0.0000000E+00
 0.55775  0.0000000E+00
 0.63825  0.0000000E+00
 0.71875  0.0000000E+00
 0.79925  0.0000000E+00
 0.87975  0.0000000E+00
 0.96025  0.0000000E+00
 1.04075  0.0000000E+00
 1.12125  0.0000000E+00
 1.20175  0.0000000E+00
 1.28225  0.0000000E+00
 1.36275  0.0000000E+00
 1.44325  0.0000000E+00
 1.52375  0.0000000E+00
 1.60425  0.0000000E+00
 1.68475  0.0000000E+00
 1.76525  0.0000000E+00
 1.84575  0.0000000E+00
 1.92625  0.0000000E+00
 2.00675  0.0000000E+00
 2.08725  0.0000000E+00
 2.16775  0.0000000E+00
 2.24825  0.0000000E+00
 2.32875  0.0000000E+00
 2.40925  0.0000000E+00
 2.48975  0.0000000E+00
 2.57025  0.0000000E+00
 2.65075  0.0000000E+00
 2.73125  0.0000000E+00
 2.81175  0.0000000E+00
 2.89225  34.0614
 2.97275  35.3702
 3.05325  35.2731
 3.13375  34.3015
 3.21425  34.143
 3.29475  34.6119
 3.37525  34.6876
 3.45575  33.5727
 3.53625  33.799
 3.61675  33.1692
 3.69725  32.5662
 3.77775  32.2476
 3.85825  32.115
 3.93875  31.7142
 4.01925  32.2876
 4.09975  31.7988
 4.18025  31.6686
 4.26075  31.8623
 4.34125  31.747
 4.42175  32.5964
 4.50225  32.0465
 4.58275  32.1232
 4.66325  32.3728
 4.74375  32.3352
 4.82425  32.0751
 4.90475  32.2398
 4.98525  32.3281
 5.06575  32.7346
 5.14625  32.9194
 5.22675  33.4612
 5.30725  33.4936
 5.38775  33.9246
 5.46825  34.172
 5.54875  34.8795
 5.62925  34.7644
 5.70975  35.6392
 5.79025  36.2471
 5.87075  38.0564
 5.95125  87.5697
 6.03175  66.7157
 6.11225  38.2792
 6.19275  37.2106
 6.27325  37.0524
 6.35375  37.525
 6.43425  38.0581
 6.51475  38.5369
 6.59525  38.775
 6.67575  39.4848
 6.75625  39.9413
 6.83675  40.7701
 6.91725  41.0814
 6.99775  41.2771
 7.07825  42.1435
 7.15875  42.1094
 7.23925  42.8131
 7.31975  42.6341
 7.40025  42.7892
 7.48075  43.2748
 7.56125  43.3743
 7.64175  43.634
 7.72225  43.3395
 7.80275  43.2732
 7.88325  42.892
 7.96375  42.3546
 8.04425  42.0395
 8.12475  41.7236
 8.20525  40.8385
 8.28575  39.9927
 8.36625  39.0719
 8.44675  37.7794
 8.52725  36.7969
 8.60775  35.4056
 8.68825  34.5685
 8.76875  33.3647
 8.84925  32.2763
 8.92975  30.9736
 9.01025  29.9015
 9.09075  29.3262
 9.17125  28.3987
 9.25175  27.4125
 9.33225  26.8599
 9.41275  26.8021
 9.49325  26.1268
 9.57375  25.5734
 9.65425  25.1456
 9.73475  24.6859
 9.81525  24.6581
 9.89575  24.1287
 9.97625  23.9946
 10.0567  23.7719
 10.1373  23.8307
 10.2178  23.4942
 10.2982  23.1782
 10.3788  22.9981
 10.4593  22.8892
 10.5397  22.8744
 10.6203  22.6335
 10.7007  22.5057
 10.7813  22.5184
 10.8618  22.392
 10.9422  22.3204
 11.0228  22.187
 11.1033  22.197
 11.1837  22.1677
 11.2643  22.0658
 11.3447  22.1922
 11.4253  22.4729
 11.5058  23.0066
 11.5862  30.6343
 11.6668  24.8233
 11.7473  22.3316
 11.8277  22.1554
 11.9083  22.3544
 11.9887  22.9897
 12.0693  24.2238
 12.1498  23.8818
 12.2302  22.2678
 12.3108  22.3379
 12.3913  22.3379
 12.4718  22.2278
 12.5523  22.3439
 12.6328  22.3176
 12.7133  22.6443
 12.7938  22.803
 12.8742  23.0486
 12.9548  23.3922
 13.0353  23.7382
 13.1158  24.4859
 13.1963  25.1398
 13.2768  26.2139
 13.3573  27.1882
 13.4378  28.124
 13.5183  28.9335
 13.5988  29.3239
 13.6793  29.2684
 13.7598  29.0296
 13.8403  29.2978
 13.9208  40.0732
 14.0013  34.2575
 14.0818  27.6221
 14.1623  26.7406
 14.2428  26.0004
 14.3233  25.7636
 14.4038  25.5166
 14.4843  25.2699
 14.5648  25.2134
 14.6453  25.0388
 14.7258  24.7509
 14.8063  24.4286
 14.8868  24.4722
 14.9673  24.3549
 15.0478  24.4168
 15.1283  24.663
 15.2088  25.5443
 15.2892  24.3037
 15.3698  24.207
 15.4503  24.1376
 15.5308  24.0321
 15.6113  24.2037
 15.6918  24.2771
 15.7723  24.3104
 15.8528  24.2414
 15.9332  24.2711
 16.0138  24.3344
 16.0943  24.4378
 16.1748  24.4963
 16.2553  26.1333
 16.3358  24.7785
 16.4163  24.8084
 16.4967  24.2547
 16.5773  24.2251
 16.6578  24.132
 16.7383  24.0441
 16.8188  24.1034
 16.8992  24.0631
 16.9798  23.9067
 17.0603  23.8254
 17.1408  23.8072
 17.2213  23.9593
 17.3017  23.8974
 17.3823  23.6934
 17.4628  23.7148
 17.5433  23.5235
 17.6238  23.5422
 17.7042  23.5551
 17.7847  23.6292
 17.8653  23.4767
 17.9458  23.5917
 18.0263  24.3746
 18.1068  28.5445
 18.1872  24.6623
 18.2678  23.4146
 18.3483  23.3192
 18.4288  23.2883
 18.5093  23.2924
 18.5897  23.2285
 18.6703  23.1515
 18.7508  23.0956
 18.8313  23.136
 18.9118  23.2255
 18.9922  23.1345
 19.0727  23.2907
 19.1533  23.5647
 19.2338  23.2264
 19.3143  23.2636
 19.3948  23.4892
 19.4752  23.3956
 19.5558  23.5804
 19.6363  23.962
 19.7168  27.5133
 19.7973  25.5152
 19.8777  27.9672
 19.9582  23.9486
 20.0388  23.6275
 20.1193  23.4886
 20.1998  23.4211
 20.2803  23.2974
 20.3607  23.4223
 20.4413  23.481
 20.5218  23.4782
 20.6023  23.6634
 20.6828  24.4307
 20.7632  26.2506
 20.8438  23.8941
 20.9243  23.7445
 21.0048  23.6107
 21.0853  23.6221
 21.1658  23.5607
 21.2462  23.6711
 21.3268  23.566
 21.4073  23.6001
 21.4878  23.6834
 21.5683  23.735
 21.6487  23.77
 21.7293  23.7435
 21.8098  23.8715
 21.8903  23.9191
 21.9708  23.8077
 22.0512  24.0985
 22.1318  24.0639
 22.2123  24.0055
 22.2928  24.1211
 22.3733  24.2561
 22.4538  24.3713
 22.5343  24.4843
 22.6148  24.5614
 22.6953  24.7383
 22.7758  24.9995
 22.8563  25.2317
 22.9367  25.6616
 22.9943  26.3067