File: test-data-xrd/xrd-map-34-ID-E/Data_0053.chi
F:\20151113_APS_34IDE\\Brian\Particle1\OCV\Data_0053.tif
2-Theta Angle (Degrees)
Intensity
       2000
 0.07475  0.0000000E+00
 0.15525  0.0000000E+00
 0.23575  0.0000000E+00
 0.31625  0.0000000E+00
 0.39675  0.0000000E+00
 0.47725  0.0000000E+00
 0.55775  0.0000000E+00
 0.63825  0.0000000E+00
 0.71875  0.0000000E+00
 0.79925  0.0000000E+00
 0.87975  0.0000000E+00
 0.96025  0.0000000E+00
 1.04075  0.0000000E+00
 1.12125  0.0000000E+00
 1.20175  0.0000000E+00
 1.28225  0.0000000E+00
 1.36275  0.0000000E+00
 1.44325  0.0000000E+00
 1.52375  0.0000000E+00
 1.60425  0.0000000E+00
 1.68475  0.0000000E+00
 1.76525  0.0000000E+00
 1.84575  0.0000000E+00
 1.92625  0.0000000E+00
 2.00675  0.0000000E+00
 2.08725  0.0000000E+00
 2.16775  0.0000000E+00
 2.24825  0.0000000E+00
 2.32875  0.0000000E+00
 2.40925  0.0000000E+00
 2.48975  0.0000000E+00
 2.57025  0.0000000E+00
 2.65075  0.0000000E+00
 2.73125  0.0000000E+00
 2.81175  0.0000000E+00
 2.89225  33.9535
 2.97275  37.2104
 3.05325  35.9123
 3.13375  35.7104
 3.21425  36.2475
 3.29475  34.7669
 3.37525  35.2272
 3.45575  34.3401
 3.53625  33.6982
 3.61675  33.7063
 3.69725  33.0317
 3.77775  32.7442
 3.85825  32.8792
 3.93875  32.3052
 4.01925  32.3408
 4.09975  31.9489
 4.18025  31.9761
 4.26075  32.1921
 4.34125  32.4818
 4.42175  32.5608
 4.50225  32.474
 4.58275  32.4823
 4.66325  32.6072
 4.74375  32.4043
 4.82425  32.349
 4.90475  33.0895
 4.98525  33.1211
 5.06575  33.1522
 5.14625  33.1992
 5.22675  33.6407
 5.30725  33.8634
 5.38775  34.3621
 5.46825  34.5106
 5.54875  34.942
 5.62925  34.9753
 5.70975  35.1073
 5.79025  35.3409
 5.87075  36.4881
 5.95125  44.2031
 6.03175  44.0214
 6.11225  37.2498
 6.19275  37.088
 6.27325  37.6532
 6.35375  38.0105
 6.43425  38.6692
 6.51475  39.0579
 6.59525  39.5234
 6.67575  39.9808
 6.75625  40.7184
 6.83675  41.2834
 6.91725  42.126
 6.99775  42.4301
 7.07825  42.3867
 7.15875  42.7447
 7.23925  43.2699
 7.31975  43.6135
 7.40025  43.9916
 7.48075  44.3378
 7.56125  44.2408
 7.64175  44.3224
 7.72225  43.9933
 7.80275  44.2369
 7.88325  43.9926
 7.96375  43.6884
 8.04425  43.0954
 8.12475  42.9225
 8.20525  41.8449
 8.28575  41.0532
 8.36625  40.3987
 8.44675  38.87
 8.52725  37.4126
 8.60775  36.4344
 8.68825  35.1842
 8.76875  33.7181
 8.84925  32.5926
 8.92975  31.8148
 9.01025  30.488
 9.09075  29.8443
 9.17125  28.8807
 9.25175  28.2731
 9.33225  27.5664
 9.41275  26.9033
 9.49325  26.2981
 9.57375  25.806
 9.65425  25.5179
 9.73475  25.3269
 9.81525  24.8505
 9.89575  24.5999
 9.97625  24.3441
 10.0567  24.0575
 10.1373  23.8001
 10.2178  23.669
 10.2982  23.496
 10.3788  23.3614
 10.4593  23.3242
 10.5397  23.0967
 10.6203  22.8282
 10.7007  23.0548
 10.7813  22.8225
 10.8618  22.7122
 10.9422  22.5242
 11.0228  22.7264
 11.1033  22.4791
 11.1837  22.4396
 11.2643  22.5051
 11.3447  22.7816
 11.4253  23.1797
 11.5058  23.7104
 11.5862  40.0437
 11.6668  25.6206
 11.7473  22.8959
 11.8277  22.6764
 11.9083  22.5534
 11.9887  23.3189
 12.0693  24.2381
 12.1498  24.2075
 12.2302  22.4362
 12.3108  22.5059
 12.3913  22.3645
 12.4718  22.7058
 12.5523  22.6291
 12.6328  22.7881
 12.7133  22.8096
 12.7938  22.9599
 12.8742  23.4039
 12.9548  23.6896
 13.0353  24.05
 13.1158  24.8178
 13.1963  25.5059
 13.2768  26.409
 13.3573  27.7262
 13.4378  28.53
 13.5183  29.4035
 13.5988  29.665
 13.6793  29.8582
 13.7598  29.7098
 13.8403  30.3052
 13.9208  42.3943
 14.0013  31.9555
 14.0818  28.1142
 14.1623  27.0371
 14.2428  26.5632
 14.3233  26.256
 14.4038  25.9579
 14.4843  25.7135
 14.5648  25.3778
 14.6453  25.2529
 14.7258  25.139
 14.8063  25.0105
 14.8868  24.8338
 14.9673  24.8004
 15.0478  24.8282
 15.1283  25.2266
 15.2088  26.94
 15.2892  24.8035
 15.3698  24.5533
 15.4503  24.5049
 15.5308  24.575
 15.6113  24.4694
 15.6918  24.5238
 15.7723  24.5058
 15.8528  24.4294
 15.9332  24.5149
 16.0138  24.6592
 16.0943  24.5951
 16.1748  24.7156
 16.2553  25.2351
 16.3358  24.8916
 16.4163  24.667
 16.4967  24.636
 16.5773  24.5976
 16.6578  24.4873
 16.7383  24.4503
 16.8188  24.4279
 16.8992  24.2964
 16.9798  24.4622
 17.0603  24.0607
 17.1408  24.0446
 17.2213  24.142
 17.3017  24.005
 17.3823  23.9458
 17.4628  23.9482
 17.5433  23.8922
 17.6238  23.9488
 17.7042  23.9408
 17.7847  23.8169
 17.8653  23.8138
 17.9458  23.7742
 18.0263  24.3814
 18.1068  24.7897
 18.1872  23.8769
 18.2678  23.7579
 18.3483  23.6514
 18.4288  23.5811
 18.5093  23.5064
 18.5897  23.5681
 18.6703  23.523
 18.7508  23.4269
 18.8313  23.4982
 18.9118  23.435
 18.9922  23.4384
 19.0727  23.4447
 19.1533  23.67
 19.2338  23.4767
 19.3143  23.5147
 19.3948  23.6318
 19.4752  23.6527
 19.5558  23.7634
 19.6363  23.9954
 19.7168  25.5559
 19.7973  25.1538
 19.8777  25.7959
 19.9582  23.9374
 20.0388  23.7733
 20.1193  23.8568
 20.1998  23.7343
 20.2803  23.7232
 20.3607  23.7701
 20.4413  23.8411
 20.5218  23.6109
 20.6023  23.9435
 20.6828  24.4506
 20.7632  26.1262
 20.8438  24.4211
 20.9243  24.0644
 21.0048  23.8804
 21.0853  23.8578
 21.1658  23.7872
 21.2462  23.9102
 21.3268  23.7955
 21.4073  24.1157
 21.4878  23.9248
 21.5683  24.0098
 21.6487  23.9365
 21.7293  24.0481
 21.8098  24.1392
 21.8903  24.1187
 21.9708  24.19
 22.0512  24.3702
 22.1318  24.357
 22.2123  24.2854
 22.2928  24.449
 22.3733  24.515
 22.4538  24.6081
 22.5343  24.8457
 22.6148  24.8361
 22.6953  25.0315
 22.7758  25.2253
 22.8563  25.5415
 22.9367  26.0054
 22.9943  26.511