File: test-data-xrd/xrd-map-34-ID-E/Data_0078.chi
F:\20151113_APS_34IDE\\Brian\Particle1\OCV\Data_0078.tif
2-Theta Angle (Degrees)
Intensity
       2000
 0.07475  0.0000000E+00
 0.15525  0.0000000E+00
 0.23575  0.0000000E+00
 0.31625  0.0000000E+00
 0.39675  0.0000000E+00
 0.47725  0.0000000E+00
 0.55775  0.0000000E+00
 0.63825  0.0000000E+00
 0.71875  0.0000000E+00
 0.79925  0.0000000E+00
 0.87975  0.0000000E+00
 0.96025  0.0000000E+00
 1.04075  0.0000000E+00
 1.12125  0.0000000E+00
 1.20175  0.0000000E+00
 1.28225  0.0000000E+00
 1.36275  0.0000000E+00
 1.44325  0.0000000E+00
 1.52375  0.0000000E+00
 1.60425  0.0000000E+00
 1.68475  0.0000000E+00
 1.76525  0.0000000E+00
 1.84575  0.0000000E+00
 1.92625  0.0000000E+00
 2.00675  0.0000000E+00
 2.08725  0.0000000E+00
 2.16775  0.0000000E+00
 2.24825  0.0000000E+00
 2.32875  0.0000000E+00
 2.40925  0.0000000E+00
 2.48975  0.0000000E+00
 2.57025  0.0000000E+00
 2.65075  0.0000000E+00
 2.73125  0.0000000E+00
 2.81175  0.0000000E+00
 2.89225  35.2341
 2.97275  36.1886
 3.05325  35.8527
 3.13375  35.1539
 3.21425  35.7704
 3.29475  33.9643
 3.37525  35.5371
 3.45575  34.085
 3.53625  33.3895
 3.61675  33.7335
 3.69725  33.2281
 3.77775  33.0857
 3.85825  33.1667
 3.93875  32.3932
 4.01925  32.8349
 4.09975  32.2133
 4.18025  32.2061
 4.26075  32.1786
 4.34125  32.468
 4.42175  32.6073
 4.50225  32.683
 4.58275  32.8487
 4.66325  33.1035
 4.74375  33.1745
 4.82425  32.7305
 4.90475  32.8745
 4.98525  33.0209
 5.06575  33.1557
 5.14625  33.8844
 5.22675  34.0757
 5.30725  34.1448
 5.38775  34.4762
 5.46825  34.7143
 5.54875  35.2123
 5.62925  35.318
 5.70975  35.8752
 5.79025  36.4296
 5.87075  37.0594
 5.95125  57.6658
 6.03175  55.9711
 6.11225  37.9144
 6.19275  37.607
 6.27325  37.6511
 6.35375  38.2349
 6.43425  38.2049
 6.51475  39.2217
 6.59525  39.7031
 6.67575  40.3108
 6.75625  41.0549
 6.83675  41.5479
 6.91725  42.1955
 6.99775  42.6414
 7.07825  42.8648
 7.15875  43.4477
 7.23925  43.7529
 7.31975  43.4964
 7.40025  44.2353
 7.48075  44.5124
 7.56125  44.5302
 7.64175  44.6644
 7.72225  44.4657
 7.80275  44.7383
 7.88325  44.047
 7.96375  43.683
 8.04425  43.0583
 8.12475  43.0749
 8.20525  42.0199
 8.28575  41.0753
 8.36625  40.4026
 8.44675  38.7097
 8.52725  37.6907
 8.60775  36.4596
 8.68825  35.2624
 8.76875  34.024
 8.84925  32.9343
 8.92975  31.7202
 9.01025  30.6873
 9.09075  29.9293
 9.17125  28.9427
 9.25175  28.3595
 9.33225  27.6024
 9.41275  27.1543
 9.49325  26.4991
 9.57375  25.8978
 9.65425  25.5898
 9.73475  25.1955
 9.81525  24.9496
 9.89575  24.6956
 9.97625  24.2695
 10.0567  24.2931
 10.1373  23.9049
 10.2178  23.8218
 10.2982  23.6304
 10.3788  23.4469
 10.4593  23.2646
 10.5397  23.0656
 10.6203  23.1444
 10.7007  23.0898
 10.7813  22.8415
 10.8618  22.7946
 10.9422  22.7499
 11.0228  22.6076
 11.1033  22.5432
 11.1837  22.6029
 11.2643  22.4616
 11.3447  22.7441
 11.4253  22.937
 11.5058  23.4979
 11.5862  40.0429
 11.6668  25.5322
 11.7473  22.9203
 11.8277  22.7663
 11.9083  22.978
 11.9887  24.025
 12.0693  23.5766
 12.1498  23.2937
 12.2302  22.5355
 12.3108  22.5817
 12.3913  22.5191
 12.4718  22.6771
 12.5523  22.8026
 12.6328  22.9762
 12.7133  22.9419
 12.7938  23.1937
 12.8742  23.4063
 12.9548  23.8109
 13.0353  24.197
 13.1158  24.9793
 13.1963  25.692
 13.2768  26.7934
 13.3573  27.7148
 13.4378  28.6865
 13.5183  29.4571
 13.5988  29.9737
 13.6793  29.8908
 13.7598  29.6631
 13.8403  29.7009
 13.9208  34.4283
 14.0013  34.8192
 14.0818  27.9957
 14.1623  27.2473
 14.2428  26.6615
 14.3233  26.2517
 14.4038  26.0551
 14.4843  25.6061
 14.5648  25.5751
 14.6453  25.3703
 14.7258  25.3482
 14.8063  25.0226
 14.8868  24.8284
 14.9673  24.8388
 15.0478  24.8561
 15.1283  25.0759
 15.2088  27.5558
 15.2892  24.8678
 15.3698  24.5719
 15.4503  24.5877
 15.5308  24.569
 15.6113  24.647
 15.6918  24.7277
 15.7723  24.7578
 15.8528  24.7419
 15.9332  24.5613
 16.0138  24.8218
 16.0943  24.8825
 16.1748  25.3964
 16.2553  29.4346
 16.3358  25.3039
 16.4163  24.9266
 16.4967  24.7767
 16.5773  24.6624
 16.6578  24.6471
 16.7383  24.6405
 16.8188  24.4458
 16.8992  24.6101
 16.9798  24.4322
 17.0603  24.3141
 17.1408  24.3731
 17.2213  24.2867
 17.3017  24.2421
 17.3823  24.0696
 17.4628  24.027
 17.5433  24.0741
 17.6238  24.0934
 17.7042  23.9283
 17.7847  23.9519
 17.8653  23.9391
 17.9458  23.9302
 18.0263  24.4971
 18.1068  26.7911
 18.1872  24.4935
 18.2678  23.8449
 18.3483  23.753
 18.4288  23.7303
 18.5093  23.6317
 18.5897  23.6197
 18.6703  23.525
 18.7508  23.4915
 18.8313  23.6047
 18.9118  23.3726
 18.9922  23.5041
 19.0727  23.7025
 19.1533  23.5669
 19.2338  23.6014
 19.3143  23.6671
 19.3948  23.6977
 19.4752  23.7409
 19.5558  23.919
 19.6363  24.43
 19.7168  27.6989
 19.7973  25.7141
 19.8777  28.5308
 19.9582  24.3541
 20.0388  23.9586
 20.1193  23.8525
 20.1998  23.83
 20.2803  23.8585
 20.3607  23.8
 20.4413  23.9354
 20.5218  23.8308
 20.6023  24.0801
 20.6828  24.6192
 20.7632  29.2866
 20.8438  24.668
 20.9243  24.0847
 21.0048  24.1056
 21.0853  24.1035
 21.1658  23.9686
 21.2462  23.9629
 21.3268  23.9726
 21.4073  24.0929
 21.4878  24.074
 21.5683  24.0825
 21.6487  24.1922
 21.7293  24.2204
 21.8098  24.2889
 21.8903  24.2158
 21.9708  24.3948
 22.0512  24.4442
 22.1318  24.4561
 22.2123  24.4541
 22.2928  24.4049
 22.3733  24.5849
 22.4538  24.7147
 22.5343  24.9316
 22.6148  25.0153
 22.6953  25.249
 22.7758  25.4184
 22.8563  25.5937
 22.9367  26.0258
 22.9943  26.4829