File: test-data-xrd/xrd-map-34-ID-E/Data_0044.chi
F:\20151113_APS_34IDE\\Brian\Particle1\OCV\Data_0044.tif
2-Theta Angle (Degrees)
Intensity
       2000
 0.07475  0.0000000E+00
 0.15525  0.0000000E+00
 0.23575  0.0000000E+00
 0.31625  0.0000000E+00
 0.39675  0.0000000E+00
 0.47725  0.0000000E+00
 0.55775  0.0000000E+00
 0.63825  0.0000000E+00
 0.71875  0.0000000E+00
 0.79925  0.0000000E+00
 0.87975  0.0000000E+00
 0.96025  0.0000000E+00
 1.04075  0.0000000E+00
 1.12125  0.0000000E+00
 1.20175  0.0000000E+00
 1.28225  0.0000000E+00
 1.36275  0.0000000E+00
 1.44325  0.0000000E+00
 1.52375  0.0000000E+00
 1.60425  0.0000000E+00
 1.68475  0.0000000E+00
 1.76525  0.0000000E+00
 1.84575  0.0000000E+00
 1.92625  0.0000000E+00
 2.00675  0.0000000E+00
 2.08725  0.0000000E+00
 2.16775  0.0000000E+00
 2.24825  0.0000000E+00
 2.32875  0.0000000E+00
 2.40925  0.0000000E+00
 2.48975  0.0000000E+00
 2.57025  0.0000000E+00
 2.65075  0.0000000E+00
 2.73125  0.0000000E+00
 2.81175  0.0000000E+00
 2.89225  35.4785
 2.97275  34.4359
 3.05325  35.6043
 3.13375  34.3555
 3.21425  36.1662
 3.29475  34.8517
 3.37525  34.5256
 3.45575  34.7832
 3.53625  34.438
 3.61675  33.5973
 3.69725  34.3352
 3.77775  33.284
 3.85825  32.8651
 3.93875  32.4421
 4.01925  32.3831
 4.09975  31.8201
 4.18025  32.279
 4.26075  32.299
 4.34125  32.1415
 4.42175  32.4998
 4.50225  32.8865
 4.58275  32.9476
 4.66325  32.6341
 4.74375  32.9868
 4.82425  32.4785
 4.90475  33.2357
 4.98525  32.5627
 5.06575  33.131
 5.14625  33.5508
 5.22675  33.839
 5.30725  33.987
 5.38775  34.4716
 5.46825  34.627
 5.54875  34.8044
 5.62925  34.7494
 5.70975  35.1328
 5.79025  35.6539
 5.87075  36.2327
 5.95125  41.6492
 6.03175  38.2892
 6.11225  36.5586
 6.19275  36.9355
 6.27325  37.6002
 6.35375  37.945
 6.43425  38.4281
 6.51475  39.2045
 6.59525  39.5647
 6.67575  39.8989
 6.75625  40.7015
 6.83675  41.5978
 6.91725  41.414
 6.99775  42.2794
 7.07825  42.8851
 7.15875  43.085
 7.23925  43.6397
 7.31975  43.7975
 7.40025  43.9408
 7.48075  45.4078
 7.56125  44.5431
 7.64175  44.4317
 7.72225  44.065
 7.80275  44.0945
 7.88325  43.9913
 7.96375  43.8881
 8.04425  43.261
 8.12475  42.6588
 8.20525  41.8554
 8.28575  40.9334
 8.36625  39.8447
 8.44675  38.8061
 8.52725  37.5613
 8.60775  36.0984
 8.68825  35.2478
 8.76875  33.8057
 8.84925  32.5679
 8.92975  31.5699
 9.01025  30.5103
 9.09075  29.8592
 9.17125  28.7606
 9.25175  28.0582
 9.33225  27.3
 9.41275  26.9782
 9.49325  26.363
 9.57375  25.8169
 9.65425  25.4521
 9.73475  25.115
 9.81525  24.9468
 9.89575  24.5592
 9.97625  24.2283
 10.0567  24.0473
 10.1373  23.6324
 10.2178  23.7272
 10.2982  23.3814
 10.3788  23.2644
 10.4593  23.0935
 10.5397  22.9735
 10.6203  22.8569
 10.7007  22.7771
 10.7813  22.8242
 10.8618  22.5953
 10.9422  22.4442
 11.0228  22.4629
 11.1033  22.4546
 11.1837  22.305
 11.2643  22.1838
 11.3447  22.3307
 11.4253  22.685
 11.5058  22.3132
 11.5862  23.2976
 11.6668  22.4431
 11.7473  22.312
 11.8277  22.2314
 11.9083  22.2401
 11.9887  22.5294
 12.0693  22.5405
 12.1498  22.557
 12.2302  22.3708
 12.3108  22.3769
 12.3913  22.4349
 12.4718  22.4659
 12.5523  22.6004
 12.6328  22.9638
 12.7133  22.8305
 12.7938  23.0057
 12.8742  23.3719
 12.9548  23.5933
 13.0353  24.0492
 13.1158  24.7713
 13.1963  25.5911
 13.2768  26.4051
 13.3573  27.3483
 13.4378  28.3878
 13.5183  29.0332
 13.5988  29.4504
 13.6793  29.3853
 13.7598  28.9373
 13.8403  28.5695
 13.9208  28.9717
 14.0013  28.4134
 14.0818  27.2852
 14.1623  26.7101
 14.2428  26.39
 14.3233  25.9311
 14.4038  25.7867
 14.4843  25.4311
 14.5648  25.3186
 14.6453  25.0819
 14.7258  24.9749
 14.8063  24.8786
 14.8868  24.7601
 14.9673  24.7253
 15.0478  24.6141
 15.1283  24.6794
 15.2088  24.9767
 15.2892  24.5802
 15.3698  24.4578
 15.4503  24.442
 15.5308  24.3805
 15.6113  24.3532
 15.6918  24.4092
 15.7723  24.3553
 15.8528  24.4415
 15.9332  24.4442
 16.0138  24.5317
 16.0943  24.5757
 16.1748  24.6069
 16.2553  24.8359
 16.3358  24.6549
 16.4163  24.4994
 16.4967  24.5692
 16.5773  24.4216
 16.6578  24.3341
 16.7383  24.3673
 16.8188  24.2802
 16.8992  24.1203
 16.9798  24.1532
 17.0603  24.0871
 17.1408  24.0105
 17.2213  24.0904
 17.3017  23.8984
 17.3823  24.0308
 17.4628  23.7616
 17.5433  23.7314
 17.6238  23.636
 17.7042  23.55
 17.7847  23.6054
 17.8653  23.4684
 17.9458  23.5735
 18.0263  23.6143
 18.1068  23.8044
 18.1872  23.3962
 18.2678  23.2844
 18.3483  23.576
 18.4288  23.4903
 18.5093  23.4614
 18.5897  23.3264
 18.6703  23.2749
 18.7508  23.2889
 18.8313  23.4074
 18.9118  23.3507
 18.9922  23.3056
 19.0727  23.3325
 19.1533  23.2694
 19.2338  23.2569
 19.3143  23.3188
 19.3948  23.3677
 19.4752  23.3974
 19.5558  23.4285
 19.6363  23.4996
 19.7168  23.8515
 19.7973  23.7031
 19.8777  23.8882
 19.9582  23.5199
 20.0388  23.3843
 20.1193  23.3692
 20.1998  23.3721
 20.2803  23.4988
 20.3607  23.4829
 20.4413  23.5507
 20.5218  23.4133
 20.6023  23.5033
 20.6828  23.5156
 20.7632  23.797
 20.8438  23.623
 20.9243  23.7149
 21.0048  23.5964
 21.0853  23.5832
 21.1658  23.6267
 21.2462  23.6213
 21.3268  23.6981
 21.4073  23.6962
 21.4878  23.6775
 21.5683  23.7632
 21.6487  23.8812
 21.7293  23.9154
 21.8098  23.8521
 21.8903  23.86
 21.9708  24.0185
 22.0512  24.0351
 22.1318  24.249
 22.2123  24.1901
 22.2928  24.1897
 22.3733  24.3229
 22.4538  24.4035
 22.5343  24.6165
 22.6148  24.6965
 22.6953  24.8899
 22.7758  25.1516
 22.8563  25.2044
 22.9367  25.5856
 22.9943  26.0557