File: test-data-xrd/xrd-map-34-ID-E/Data_0076.chi
F:\20151113_APS_34IDE\\Brian\Particle1\OCV\Data_0076.tif
2-Theta Angle (Degrees)
Intensity
       2000
 0.07475  0.0000000E+00
 0.15525  0.0000000E+00
 0.23575  0.0000000E+00
 0.31625  0.0000000E+00
 0.39675  0.0000000E+00
 0.47725  0.0000000E+00
 0.55775  0.0000000E+00
 0.63825  0.0000000E+00
 0.71875  0.0000000E+00
 0.79925  0.0000000E+00
 0.87975  0.0000000E+00
 0.96025  0.0000000E+00
 1.04075  0.0000000E+00
 1.12125  0.0000000E+00
 1.20175  0.0000000E+00
 1.28225  0.0000000E+00
 1.36275  0.0000000E+00
 1.44325  0.0000000E+00
 1.52375  0.0000000E+00
 1.60425  0.0000000E+00
 1.68475  0.0000000E+00
 1.76525  0.0000000E+00
 1.84575  0.0000000E+00
 1.92625  0.0000000E+00
 2.00675  0.0000000E+00
 2.08725  0.0000000E+00
 2.16775  0.0000000E+00
 2.24825  0.0000000E+00
 2.32875  0.0000000E+00
 2.40925  0.0000000E+00
 2.48975  0.0000000E+00
 2.57025  0.0000000E+00
 2.65075  0.0000000E+00
 2.73125  0.0000000E+00
 2.81175  0.0000000E+00
 2.89225  34.2039
 2.97275  34.7912
 3.05325  35.2215
 3.13375  35.2598
 3.21425  36.5954
 3.29475  34.6409
 3.37525  35.0291
 3.45575  34.8136
 3.53625  33.9389
 3.61675  33.368
 3.69725  32.9484
 3.77775  32.6489
 3.85825  32.5446
 3.93875  32.9655
 4.01925  33.1715
 4.09975  32.7555
 4.18025  32.3301
 4.26075  32.4325
 4.34125  32.5023
 4.42175  32.5385
 4.50225  32.6118
 4.58275  32.7488
 4.66325  32.7893
 4.74375  32.6203
 4.82425  32.6676
 4.90475  32.9641
 4.98525  33.4505
 5.06575  33.4235
 5.14625  33.707
 5.22675  33.9035
 5.30725  34.2238
 5.38775  34.5564
 5.46825  34.6647
 5.54875  34.8212
 5.62925  35.361
 5.70975  35.5988
 5.79025  35.8189
 5.87075  35.9311
 5.95125  37.7436
 6.03175  37.502
 6.11225  36.9345
 6.19275  37.0128
 6.27325  37.307
 6.35375  38.0566
 6.43425  38.5801
 6.51475  39.0811
 6.59525  39.6867
 6.67575  40.0836
 6.75625  40.8972
 6.83675  41.4814
 6.91725  42.1536
 6.99775  42.3125
 7.07825  42.7205
 7.15875  43.0525
 7.23925  43.7023
 7.31975  43.9709
 7.40025  44.0127
 7.48075  44.5175
 7.56125  44.3896
 7.64175  44.3776
 7.72225  44.6582
 7.80275  44.2372
 7.88325  44.0127
 7.96375  43.8373
 8.04425  43.6221
 8.12475  42.6375
 8.20525  41.9738
 8.28575  40.9869
 8.36625  40.3138
 8.44675  39.2493
 8.52725  38.0496
 8.60775  36.579
 8.68825  35.3412
 8.76875  34.1958
 8.84925  32.7618
 8.92975  31.735
 9.01025  30.6949
 9.09075  29.8025
 9.17125  28.8839
 9.25175  28.155
 9.33225  27.537
 9.41275  27.0983
 9.49325  26.6487
 9.57375  26.0532
 9.65425  25.4837
 9.73475  25.2424
 9.81525  25.0274
 9.89575  24.6506
 9.97625  24.4473
 10.0567  24.0714
 10.1373  23.8529
 10.2178  23.763
 10.2982  23.6225
 10.3788  23.3251
 10.4593  23.2222
 10.5397  23.2052
 10.6203  22.8402
 10.7007  22.9602
 10.7813  22.776
 10.8618  22.5843
 10.9422  22.5721
 11.0228  22.6047
 11.1033  22.315
 11.1837  22.4312
 11.2643  22.2555
 11.3447  22.3401
 11.4253  22.525
 11.5058  22.5186
 11.5862  24.2455
 11.6668  22.8312
 11.7473  22.3578
 11.8277  22.4139
 11.9083  22.2901
 11.9887  22.4626
 12.0693  22.6809
 12.1498  22.7639
 12.2302  22.4384
 12.3108  22.4
 12.3913  22.4493
 12.4718  22.4273
 12.5523  22.4652
 12.6328  22.8002
 12.7133  22.8746
 12.7938  23.0457
 12.8742  23.3356
 12.9548  23.6123
 13.0353  24.0701
 13.1158  24.8549
 13.1963  25.5934
 13.2768  26.5768
 13.3573  27.7028
 13.4378  28.4279
 13.5183  29.1815
 13.5988  29.7622
 13.6793  29.6586
 13.7598  29.4026
 13.8403  29.0329
 13.9208  29.8352
 14.0013  29.0798
 14.0818  27.4069
 14.1623  26.9131
 14.2428  26.4728
 14.3233  26.0864
 14.4038  25.9155
 14.4843  25.5766
 14.5648  25.3549
 14.6453  25.1061
 14.7258  25.0157
 14.8063  24.9095
 14.8868  24.8857
 14.9673  24.771
 15.0478  24.5848
 15.1283  24.6421
 15.2088  25.5596
 15.2892  24.5806
 15.3698  24.4291
 15.4503  24.4955
 15.5308  24.3669
 15.6113  24.3462
 15.6918  24.4909
 15.7723  24.5025
 15.8528  24.5048
 15.9332  24.7224
 16.0138  24.5164
 16.0943  24.6283
 16.1748  24.6806
 16.2553  25.1352
 16.3358  24.6891
 16.4163  24.5932
 16.4967  24.5931
 16.5773  24.4524
 16.6578  24.3682
 16.7383  24.3188
 16.8188  24.3803
 16.8992  24.3269
 16.9798  24.1106
 17.0603  24.1856
 17.1408  23.9436
 17.2213  24.0047
 17.3017  24.0752
 17.3823  23.9408
 17.4628  23.9763
 17.5433  23.7287
 17.6238  23.8396
 17.7042  23.6611
 17.7847  23.5084
 17.8653  23.5308
 17.9458  23.5264
 18.0263  23.6635
 18.1068  23.8157
 18.1872  23.5162
 18.2678  23.4094
 18.3483  23.4664
 18.4288  23.3687
 18.5093  23.4005
 18.5897  23.3965
 18.6703  23.2442
 18.7508  23.306
 18.8313  23.2493
 18.9118  23.2496
 18.9922  23.3831
 19.0727  23.4216
 19.1533  23.3047
 19.2338  23.2785
 19.3143  23.3702
 19.3948  23.4208
 19.4752  23.4243
 19.5558  23.3913
 19.6363  23.6739
 19.7168  24.2114
 19.7973  23.924
 19.8777  24.2048
 19.9582  23.5315
 20.0388  23.4874
 20.1193  23.5695
 20.1998  23.5411
 20.2803  23.5272
 20.3607  23.4883
 20.4413  23.5773
 20.5218  23.4364
 20.6023  23.6516
 20.6828  23.6548
 20.7632  24.2423
 20.8438  23.7499
 20.9243  23.646
 21.0048  23.6832
 21.0853  23.6195
 21.1658  23.6569
 21.2462  23.5527
 21.3268  23.6672
 21.4073  23.6755
 21.4878  23.7937
 21.5683  23.7587
 21.6487  23.8678
 21.7293  23.9128
 21.8098  23.9038
 21.8903  24.0654
 21.9708  24.075
 22.0512  24.2247
 22.1318  24.1182
 22.2123  24.1972
 22.2928  24.3364
 22.3733  24.2875
 22.4538  24.4006
 22.5343  24.7168
 22.6148  24.6574
 22.6953  24.9866
 22.7758  25.0475
 22.8563  25.4086
 22.9367  25.6186
 22.9943  25.9825