File: test-data-xrd/xrd-map-34-ID-E/Data_0020.chi
F:\20151113_APS_34IDE\\Brian\Particle1\OCV\Data_0020.tif
2-Theta Angle (Degrees)
Intensity
       2000
 0.07475  0.0000000E+00
 0.15525  0.0000000E+00
 0.23575  0.0000000E+00
 0.31625  0.0000000E+00
 0.39675  0.0000000E+00
 0.47725  0.0000000E+00
 0.55775  0.0000000E+00
 0.63825  0.0000000E+00
 0.71875  0.0000000E+00
 0.79925  0.0000000E+00
 0.87975  0.0000000E+00
 0.96025  0.0000000E+00
 1.04075  0.0000000E+00
 1.12125  0.0000000E+00
 1.20175  0.0000000E+00
 1.28225  0.0000000E+00
 1.36275  0.0000000E+00
 1.44325  0.0000000E+00
 1.52375  0.0000000E+00
 1.60425  0.0000000E+00
 1.68475  0.0000000E+00
 1.76525  0.0000000E+00
 1.84575  0.0000000E+00
 1.92625  0.0000000E+00
 2.00675  0.0000000E+00
 2.08725  0.0000000E+00
 2.16775  0.0000000E+00
 2.24825  0.0000000E+00
 2.32875  0.0000000E+00
 2.40925  0.0000000E+00
 2.48975  0.0000000E+00
 2.57025  0.0000000E+00
 2.65075  0.0000000E+00
 2.73125  0.0000000E+00
 2.81175  0.0000000E+00
 2.89225  34.2673
 2.97275  36.178
 3.05325  35.8825
 3.13375  35.0799
 3.21425  35.2611
 3.29475  34.0184
 3.37525  34.1657
 3.45575  34.4996
 3.53625  33.6896
 3.61675  33.7619
 3.69725  33.035
 3.77775  32.7285
 3.85825  33.0383
 3.93875  32.3262
 4.01925  32.5219
 4.09975  32.7148
 4.18025  32.1013
 4.26075  32.6281
 4.34125  32.7413
 4.42175  32.5687
 4.50225  33.0336
 4.58275  32.4405
 4.66325  32.5932
 4.74375  32.4786
 4.82425  32.6205
 4.90475  32.5643
 4.98525  32.6353
 5.06575  33.2597
 5.14625  33.6438
 5.22675  34.1113
 5.30725  34.6485
 5.38775  34.4116
 5.46825  34.8491
 5.54875  34.7768
 5.62925  35.0568
 5.70975  35.6883
 5.79025  36.0697
 5.87075  36.2115
 5.95125  40.1425
 6.03175  40.3624
 6.11225  36.9624
 6.19275  37.1099
 6.27325  37.6709
 6.35375  38.1065
 6.43425  38.4772
 6.51475  39.2243
 6.59525  39.6578
 6.67575  40.2062
 6.75625  40.6714
 6.83675  41.6869
 6.91725  41.9098
 6.99775  42.2155
 7.07825  42.742
 7.15875  43.3368
 7.23925  43.5923
 7.31975  43.8676
 7.40025  44.3475
 7.48075  44.1915
 7.56125  44.295
 7.64175  44.3468
 7.72225  44.4842
 7.80275  43.9953
 7.88325  44.163
 7.96375  43.7396
 8.04425  43.3129
 8.12475  42.7202
 8.20525  41.9464
 8.28575  40.9243
 8.36625  40.063
 8.44675  39.1942
 8.52725  37.6453
 8.60775  36.297
 8.68825  35.1033
 8.76875  33.9425
 8.84925  32.7335
 8.92975  31.8329
 9.01025  30.56
 9.09075  29.6772
 9.17125  28.9092
 9.25175  28.1762
 9.33225  27.3343
 9.41275  26.8
 9.49325  26.4199
 9.57375  26.1595
 9.65425  25.4378
 9.73475  25.1549
 9.81525  24.8561
 9.89575  24.6219
 9.97625  24.3764
 10.0567  24.2711
 10.1373  24.0009
 10.2178  23.9222
 10.2982  23.6621
 10.3788  23.6362
 10.4593  23.2378
 10.5397  23.0954
 10.6203  23.0023
 10.7007  22.9043
 10.7813  22.7632
 10.8618  22.655
 10.9422  22.5887
 11.0228  22.488
 11.1033  22.455
 11.1837  22.5411
 11.2643  22.5015
 11.3447  22.4214
 11.4253  22.746
 11.5058  22.7121
 11.5862  26.5078
 11.6668  24.4634
 11.7473  22.5789
 11.8277  22.4805
 11.9083  22.4944
 11.9887  23.5309
 12.0693  23.7859
 12.1498  24.1018
 12.2302  22.5817
 12.3108  22.458
 12.3913  23.0193
 12.4718  22.6945
 12.5523  22.6412
 12.6328  22.7976
 12.7133  22.921
 12.7938  22.973
 12.8742  23.4066
 12.9548  23.655
 13.0353  24.1321
 13.1158  24.905
 13.1963  25.5733
 13.2768  26.5786
 13.3573  27.5982
 13.4378  28.5376
 13.5183  29.3181
 13.5988  29.8492
 13.6793  29.6918
 13.7598  29.2156
 13.8403  28.7381
 13.9208  29.6154
 14.0013  28.7519
 14.0818  27.4122
 14.1623  26.9005
 14.2428  26.3697
 14.3233  26.1153
 14.4038  25.9629
 14.4843  25.6624
 14.5648  25.492
 14.6453  25.4111
 14.7258  25.2303
 14.8063  25.078
 14.8868  24.8557
 14.9673  24.8434
 15.0478  24.9961
 15.1283  25.6354
 15.2088  34.0232
 15.2892  25.1336
 15.3698  24.6902
 15.4503  24.4548
 15.5308  24.5936
 15.6113  24.4605
 15.6918  24.5076
 15.7723  24.5078
 15.8528  24.5762
 15.9332  24.6057
 16.0138  24.5035
 16.0943  24.7918
 16.1748  24.7278
 16.2553  25.1938
 16.3358  24.9286
 16.4163  24.5592
 16.4967  24.6758
 16.5773  24.4836
 16.6578  24.4556
 16.7383  24.3184
 16.8188  24.3068
 16.8992  24.2211
 16.9798  24.2886
 17.0603  24.0545
 17.1408  24.0829
 17.2213  24.0368
 17.3017  23.946
 17.3823  24.0392
 17.4628  23.9058
 17.5433  23.8499
 17.6238  23.6756
 17.7042  23.7912
 17.7847  23.8239
 17.8653  23.5784
 17.9458  23.7578
 18.0263  23.9449
 18.1068  25.0567
 18.1872  23.7177
 18.2678  23.5586
 18.3483  23.5196
 18.4288  23.3822
 18.5093  23.4602
 18.5897  23.4342
 18.6703  23.3304
 18.7508  23.4589
 18.8313  23.4009
 18.9118  23.3921
 18.9922  23.2053
 19.0727  23.408
 19.1533  23.3945
 19.2338  23.2724
 19.3143  23.4797
 19.3948  23.5765
 19.4752  23.557
 19.5558  23.6398
 19.6363  23.5424
 19.7168  24.697
 19.7973  24.0627
 19.8777  24.3228
 19.9582  23.5998
 20.0388  23.6195
 20.1193  23.4467
 20.1998  23.5313
 20.2803  23.5647
 20.3607  23.4523
 20.4413  23.5844
 20.5218  23.611
 20.6023  23.7602
 20.6828  23.9062
 20.7632  24.8786
 20.8438  24.1166
 20.9243  23.8508
 21.0048  23.7117
 21.0853  23.7619
 21.1658  23.776
 21.2462  23.6946
 21.3268  23.7043
 21.4073  23.7416
 21.4878  23.7991
 21.5683  23.8357
 21.6487  23.9475
 21.7293  24.0312
 21.8098  24.0905
 21.8903  24.0458
 21.9708  24.1092
 22.0512  24.2218
 22.1318  24.1513
 22.2123  24.243
 22.2928  24.2961
 22.3733  24.3986
 22.4538  24.4721
 22.5343  24.6682
 22.6148  24.7487
 22.6953  25.0276
 22.7758  25.2037
 22.8563  25.2899
 22.9367  25.8492
 22.9943  26.0947