File: test-data-xrd/xrd-map-34-ID-E/Data_0086.chi
F:\20151113_APS_34IDE\\Brian\Particle1\OCV\Data_0086.tif
2-Theta Angle (Degrees)
Intensity
       2000
 0.07475  0.0000000E+00
 0.15525  0.0000000E+00
 0.23575  0.0000000E+00
 0.31625  0.0000000E+00
 0.39675  0.0000000E+00
 0.47725  0.0000000E+00
 0.55775  0.0000000E+00
 0.63825  0.0000000E+00
 0.71875  0.0000000E+00
 0.79925  0.0000000E+00
 0.87975  0.0000000E+00
 0.96025  0.0000000E+00
 1.04075  0.0000000E+00
 1.12125  0.0000000E+00
 1.20175  0.0000000E+00
 1.28225  0.0000000E+00
 1.36275  0.0000000E+00
 1.44325  0.0000000E+00
 1.52375  0.0000000E+00
 1.60425  0.0000000E+00
 1.68475  0.0000000E+00
 1.76525  0.0000000E+00
 1.84575  0.0000000E+00
 1.92625  0.0000000E+00
 2.00675  0.0000000E+00
 2.08725  0.0000000E+00
 2.16775  0.0000000E+00
 2.24825  0.0000000E+00
 2.32875  0.0000000E+00
 2.40925  0.0000000E+00
 2.48975  0.0000000E+00
 2.57025  0.0000000E+00
 2.65075  0.0000000E+00
 2.73125  0.0000000E+00
 2.81175  0.0000000E+00
 2.89225  34.899
 2.97275  36.8835
 3.05325  35.1076
 3.13375  35.5978
 3.21425  35.3381
 3.29475  34.7287
 3.37525  34.8926
 3.45575  33.6625
 3.53625  33.9209
 3.61675  33.6609
 3.69725  32.9441
 3.77775  33.775
 3.85825  33.5001
 3.93875  32.1906
 4.01925  32.6479
 4.09975  32.2867
 4.18025  32.3751
 4.26075  32.7908
 4.34125  32.6179
 4.42175  32.6788
 4.50225  32.9258
 4.58275  32.8282
 4.66325  33.0589
 4.74375  32.9709
 4.82425  32.7528
 4.90475  33.1388
 4.98525  33.4504
 5.06575  33.331
 5.14625  33.8184
 5.22675  34.0238
 5.30725  33.962
 5.38775  34.7014
 5.46825  34.7533
 5.54875  35.4581
 5.62925  35.4639
 5.70975  35.5999
 5.79025  35.993
 5.87075  36.3836
 5.95125  42.0631
 6.03175  41.0646
 6.11225  37.0721
 6.19275  36.8421
 6.27325  37.6023
 6.35375  38.0512
 6.43425  38.555
 6.51475  39.2506
 6.59525  39.8511
 6.67575  40.4273
 6.75625  40.8728
 6.83675  41.777
 6.91725  42.0594
 6.99775  42.6316
 7.07825  42.8236
 7.15875  43.3596
 7.23925  43.4181
 7.31975  43.825
 7.40025  44.1447
 7.48075  44.5603
 7.56125  44.4908
 7.64175  44.5821
 7.72225  44.5424
 7.80275  44.4159
 7.88325  44.2044
 7.96375  43.7872
 8.04425  43.5776
 8.12475  42.9301
 8.20525  42.0374
 8.28575  41.1309
 8.36625  40.1429
 8.44675  39.028
 8.52725  37.8713
 8.60775  36.4871
 8.68825  35.2449
 8.76875  34.0851
 8.84925  32.8452
 8.92975  31.8665
 9.01025  30.6874
 9.09075  29.7283
 9.17125  29.0828
 9.25175  28.4457
 9.33225  27.6047
 9.41275  27.0948
 9.49325  26.6735
 9.57375  26.1151
 9.65425  25.6662
 9.73475  25.1836
 9.81525  25.0076
 9.89575  24.6649
 9.97625  24.4526
 10.0567  24.4503
 10.1373  24.0947
 10.2178  23.9098
 10.2982  23.7457
 10.3788  23.4669
 10.4593  23.2707
 10.5397  23.2234
 10.6203  23.1265
 10.7007  22.9473
 10.7813  23.1425
 10.8618  22.8011
 10.9422  22.7832
 11.0228  22.6627
 11.1033  22.6243
 11.1837  22.5328
 11.2643  22.5646
 11.3447  22.3637
 11.4253  22.933
 11.5058  23
 11.5862  27.0757
 11.6668  23.7139
 11.7473  22.5451
 11.8277  22.5417
 11.9083  22.5872
 11.9887  22.8134
 12.0693  23.1069
 12.1498  23.3268
 12.2302  22.5419
 12.3108  22.6765
 12.3913  22.657
 12.4718  22.6129
 12.5523  22.731
 12.6328  22.9404
 12.7133  22.9646
 12.7938  23.2795
 12.8742  23.2755
 12.9548  23.6695
 13.0353  24.1456
 13.1158  24.9282
 13.1963  25.6382
 13.2768  26.6208
 13.3573  27.7153
 13.4378  28.5961
 13.5183  29.32
 13.5988  29.6223
 13.6793  29.707
 13.7598  29.5072
 13.8403  29.4874
 13.9208  33.7962
 14.0013  33.4129
 14.0818  27.9981
 14.1623  27.1668
 14.2428  26.6282
 14.3233  26.1965
 14.4038  26.0856
 14.4843  25.6741
 14.5648  25.3991
 14.6453  25.2662
 14.7258  25.1011
 14.8063  25.0593
 14.8868  24.8848
 14.9673  24.9894
 15.0478  24.7822
 15.1283  25.1729
 15.2088  27.322
 15.2892  24.879
 15.3698  24.6096
 15.4503  24.6114
 15.5308  24.5437
 15.6113  24.5149
 15.6918  24.5823
 15.7723  24.6358
 15.8528  24.5967
 15.9332  24.4955
 16.0138  24.9678
 16.0943  24.6265
 16.1748  24.7501
 16.2553  25.2878
 16.3358  25.0083
 16.4163  24.6928
 16.4967  24.7017
 16.5773  24.6344
 16.6578  24.6296
 16.7383  24.7251
 16.8188  24.46
 16.8992  24.4127
 16.9798  24.168
 17.0603  24.115
 17.1408  24.2263
 17.2213  24.1546
 17.3017  24.1131
 17.3823  24.1063
 17.4628  24.0167
 17.5433  23.9373
 17.6238  24.0058
 17.7042  23.9003
 17.7847  23.7635
 17.8653  23.6649
 17.9458  23.8524
 18.0263  24.3307
 18.1068  24.6421
 18.1872  23.9535
 18.2678  23.6205
 18.3483  23.587
 18.4288  23.5744
 18.5093  23.453
 18.5897  23.5866
 18.6703  23.4937
 18.7508  23.3434
 18.8313  23.3769
 18.9118  23.5758
 18.9922  23.5167
 19.0727  23.5647
 19.1533  23.549
 19.2338  23.4246
 19.3143  23.618
 19.3948  23.7002
 19.4752  23.6821
 19.5558  23.9115
 19.6363  24.3559
 19.7168  26.6163
 19.7973  25.9202
 19.8777  27.4043
 19.9582  24.1147
 20.0388  23.8741
 20.1193  23.9106
 20.1998  23.7195
 20.2803  23.7307
 20.3607  23.6743
 20.4413  23.7281
 20.5218  23.6123
 20.6023  23.8974
 20.6828  24.0876
 20.7632  25.5448
 20.8438  24.2424
 20.9243  24.0874
 21.0048  23.9048
 21.0853  23.7627
 21.1658  23.872
 21.2462  23.8607
 21.3268  23.9719
 21.4073  23.9693
 21.4878  23.9892
 21.5683  24.0392
 21.6487  24.008
 21.7293  24.0041
 21.8098  24.0067
 21.8903  24.1585
 21.9708  24.197
 22.0512  24.3315
 22.1318  24.3137
 22.2123  24.2341
 22.2928  24.4456
 22.3733  24.4873
 22.4538  24.7445
 22.5343  24.7843
 22.6148  24.8157
 22.6953  25.1204
 22.7758  25.2628
 22.8563  25.5812
 22.9367  26.0171
 22.9943  26.6398