File: test-data-xrd/xrd-map-34-ID-E/Data_0085.chi
F:\20151113_APS_34IDE\\Brian\Particle1\OCV\Data_0085.tif
2-Theta Angle (Degrees)
Intensity
       2000
 0.07475  0.0000000E+00
 0.15525  0.0000000E+00
 0.23575  0.0000000E+00
 0.31625  0.0000000E+00
 0.39675  0.0000000E+00
 0.47725  0.0000000E+00
 0.55775  0.0000000E+00
 0.63825  0.0000000E+00
 0.71875  0.0000000E+00
 0.79925  0.0000000E+00
 0.87975  0.0000000E+00
 0.96025  0.0000000E+00
 1.04075  0.0000000E+00
 1.12125  0.0000000E+00
 1.20175  0.0000000E+00
 1.28225  0.0000000E+00
 1.36275  0.0000000E+00
 1.44325  0.0000000E+00
 1.52375  0.0000000E+00
 1.60425  0.0000000E+00
 1.68475  0.0000000E+00
 1.76525  0.0000000E+00
 1.84575  0.0000000E+00
 1.92625  0.0000000E+00
 2.00675  0.0000000E+00
 2.08725  0.0000000E+00
 2.16775  0.0000000E+00
 2.24825  0.0000000E+00
 2.32875  0.0000000E+00
 2.40925  0.0000000E+00
 2.48975  0.0000000E+00
 2.57025  0.0000000E+00
 2.65075  0.0000000E+00
 2.73125  0.0000000E+00
 2.81175  0.0000000E+00
 2.89225  35.6757
 2.97275  34.6954
 3.05325  35.3375
 3.13375  35.7352
 3.21425  35.7443
 3.29475  34.3678
 3.37525  34.8077
 3.45575  34.3253
 3.53625  34.0387
 3.61675  33.0018
 3.69725  32.9523
 3.77775  32.7485
 3.85825  33.2585
 3.93875  32.524
 4.01925  32.3099
 4.09975  32.6318
 4.18025  32.3345
 4.26075  32.1028
 4.34125  32.9539
 4.42175  32.8079
 4.50225  32.6997
 4.58275  32.8761
 4.66325  32.5732
 4.74375  32.4775
 4.82425  32.2164
 4.90475  32.9454
 4.98525  33.2426
 5.06575  33.2909
 5.14625  33.8641
 5.22675  34.0917
 5.30725  34.3136
 5.38775  34.842
 5.46825  34.9552
 5.54875  34.8317
 5.62925  35.438
 5.70975  35.9548
 5.79025  36.0067
 5.87075  36.4203
 5.95125  45.1358
 6.03175  47.1118
 6.11225  37.5231
 6.19275  37.1192
 6.27325  37.6758
 6.35375  38.0685
 6.43425  38.776
 6.51475  39.1203
 6.59525  39.5793
 6.67575  40.178
 6.75625  40.9056
 6.83675  41.7354
 6.91725  42.0275
 6.99775  42.4408
 7.07825  42.8498
 7.15875  43.4761
 7.23925  43.6911
 7.31975  44.0291
 7.40025  44.0888
 7.48075  44.4389
 7.56125  44.7268
 7.64175  44.5396
 7.72225  44.293
 7.80275  44.2675
 7.88325  44.0871
 7.96375  43.8672
 8.04425  43.1448
 8.12475  42.7178
 8.20525  42.0751
 8.28575  41.154
 8.36625  40.1561
 8.44675  38.9576
 8.52725  37.9582
 8.60775  36.4742
 8.68825  35.3496
 8.76875  33.8702
 8.84925  32.9991
 8.92975  32.0865
 9.01025  30.6965
 9.09075  30.2047
 9.17125  29.1558
 9.25175  28.3316
 9.33225  27.6514
 9.41275  27.1873
 9.49325  26.6497
 9.57375  25.8487
 9.65425  25.7226
 9.73475  25.5302
 9.81525  24.9945
 9.89575  24.885
 9.97625  24.5485
 10.0567  24.2755
 10.1373  24.0752
 10.2178  24.0021
 10.2982  23.8152
 10.3788  23.6605
 10.4593  23.3863
 10.5397  23.4015
 10.6203  23.174
 10.7007  23.0761
 10.7813  22.9098
 10.8618  22.963
 10.9422  22.8869
 11.0228  22.7013
 11.1033  22.5235
 11.1837  22.714
 11.2643  22.5281
 11.3447  22.7363
 11.4253  22.9955
 11.5058  24.0008
 11.5862  34.1529
 11.6668  24.2016
 11.7473  22.6859
 11.8277  22.755
 11.9083  22.7032
 11.9887  23.072
 12.0693  24.3384
 12.1498  23.7607
 12.2302  22.828
 12.3108  22.7735
 12.3913  22.6325
 12.4718  22.7181
 12.5523  22.9623
 12.6328  22.9545
 12.7133  23.0132
 12.7938  23.1012
 12.8742  23.4485
 12.9548  23.8806
 13.0353  24.2631
 13.1158  24.9361
 13.1963  25.8881
 13.2768  27.0078
 13.3573  27.979
 13.4378  28.8431
 13.5183  29.4214
 13.5988  29.9752
 13.6793  30.001
 13.7598  29.894
 13.8403  30.219
 13.9208  40.9605
 14.0013  49.209
 14.0818  28.8147
 14.1623  27.5549
 14.2428  26.797
 14.3233  26.313
 14.4038  26.2364
 14.4843  25.7747
 14.5648  25.6411
 14.6453  25.5564
 14.7258  25.336
 14.8063  25.0993
 14.8868  25.1652
 14.9673  25.0628
 15.0478  25.0369
 15.1283  26.3996
 15.2088  34.0133
 15.2892  25.2523
 15.3698  24.8338
 15.4503  24.7779
 15.5308  24.7538
 15.6113  24.6443
 15.6918  24.6985
 15.7723  24.7325
 15.8528  24.7397
 15.9332  24.6287
 16.0138  24.7647
 16.0943  24.9527
 16.1748  24.9814
 16.2553  25.3897
 16.3358  25.0098
 16.4163  24.7592
 16.4967  24.8962
 16.5773  24.7822
 16.6578  24.672
 16.7383  24.52
 16.8188  24.4617
 16.8992  24.4917
 16.9798  24.6184
 17.0603  24.2679
 17.1408  24.2566
 17.2213  24.128
 17.3017  24.1198
 17.3823  24.1774
 17.4628  24.0061
 17.5433  23.9197
 17.6238  23.9503
 17.7042  23.8867
 17.7847  24.0705
 17.8653  23.8615
 17.9458  24.0203
 18.0263  25.564
 18.1068  25.4655
 18.1872  24.2833
 18.2678  23.8417
 18.3483  23.7855
 18.4288  23.6616
 18.5093  23.6785
 18.5897  23.6412
 18.6703  23.606
 18.7508  23.6902
 18.8313  23.6529
 18.9118  23.6211
 18.9922  23.5416
 19.0727  23.6697
 19.1533  23.7564
 19.2338  23.8626
 19.3143  23.9684
 19.3948  23.7434
 19.4752  23.8522
 19.5558  24.1303
 19.6363  25.1419
 19.7168  29.9429
 19.7973  29.5318
 19.8777  38.7139
 19.9582  25.2814
 20.0388  24.2823
 20.1193  24.0625
 20.1998  23.98
 20.2803  23.8564
 20.3607  23.835
 20.4413  23.8856
 20.5218  23.8477
 20.6023  24.07
 20.6828  24.4346
 20.7632  26.7305
 20.8438  24.374
 20.9243  24.26
 21.0048  24.1466
 21.0853  23.9374
 21.1658  24.0364
 21.2462  24.0129
 21.3268  23.8804
 21.4073  24.0779
 21.4878  24.0567
 21.5683  23.9583
 21.6487  24.2313
 21.7293  24.2008
 21.8098  24.211
 21.8903  24.1813
 21.9708  24.3769
 22.0512  24.317
 22.1318  24.465
 22.2123  24.4421
 22.2928  24.546
 22.3733  24.5198
 22.4538  24.8542
 22.5343  24.9198
 22.6148  25.0049
 22.6953  25.2889
 22.7758  25.3899
 22.8563  25.5517
 22.9367  26.1549
 22.9943  26.7532