File: test-data-xrd/xrd-map-34-ID-E/Data_0111.chi
F:\20151113_APS_34IDE\\Brian\Particle1\OCV\Data_0111.tif
2-Theta Angle (Degrees)
Intensity
       2000
 0.07475  0.0000000E+00
 0.15525  0.0000000E+00
 0.23575  0.0000000E+00
 0.31625  0.0000000E+00
 0.39675  0.0000000E+00
 0.47725  0.0000000E+00
 0.55775  0.0000000E+00
 0.63825  0.0000000E+00
 0.71875  0.0000000E+00
 0.79925  0.0000000E+00
 0.87975  0.0000000E+00
 0.96025  0.0000000E+00
 1.04075  0.0000000E+00
 1.12125  0.0000000E+00
 1.20175  0.0000000E+00
 1.28225  0.0000000E+00
 1.36275  0.0000000E+00
 1.44325  0.0000000E+00
 1.52375  0.0000000E+00
 1.60425  0.0000000E+00
 1.68475  0.0000000E+00
 1.76525  0.0000000E+00
 1.84575  0.0000000E+00
 1.92625  0.0000000E+00
 2.00675  0.0000000E+00
 2.08725  0.0000000E+00
 2.16775  0.0000000E+00
 2.24825  0.0000000E+00
 2.32875  0.0000000E+00
 2.40925  0.0000000E+00
 2.48975  0.0000000E+00
 2.57025  0.0000000E+00
 2.65075  0.0000000E+00
 2.73125  0.0000000E+00
 2.81175  0.0000000E+00
 2.89225  36.6234
 2.97275  35.229
 3.05325  35.087
 3.13375  35.3943
 3.21425  35.4789
 3.29475  35.1026
 3.37525  35.2839
 3.45575  33.896
 3.53625  33.965
 3.61675  33.1601
 3.69725  33.3
 3.77775  33.2228
 3.85825  32.7136
 3.93875  32.1168
 4.01925  32.5873
 4.09975  32.6231
 4.18025  32.2848
 4.26075  32.3468
 4.34125  32.1278
 4.42175  31.9439
 4.50225  32.2724
 4.58275  32.3072
 4.66325  33.0298
 4.74375  32.6445
 4.82425  32.4688
 4.90475  32.8351
 4.98525  33.0119
 5.06575  32.9407
 5.14625  33.5906
 5.22675  34.0213
 5.30725  33.538
 5.38775  34.2136
 5.46825  34.5649
 5.54875  34.5689
 5.62925  34.7107
 5.70975  35.2112
 5.79025  35.7437
 5.87075  35.8135
 5.95125  39.283
 6.03175  40.3742
 6.11225  36.4614
 6.19275  36.8485
 6.27325  37.2433
 6.35375  38.0988
 6.43425  37.9393
 6.51475  38.9385
 6.59525  39.7005
 6.67575  40.1242
 6.75625  40.6049
 6.83675  41.372
 6.91725  41.6344
 6.99775  42.0269
 7.07825  42.3482
 7.15875  42.7986
 7.23925  43.311
 7.31975  43.6345
 7.40025  43.761
 7.48075  44.2378
 7.56125  44.263
 7.64175  44.2068
 7.72225  44.2935
 7.80275  44.2401
 7.88325  44.1101
 7.96375  43.4811
 8.04425  43.0782
 8.12475  42.4511
 8.20525  41.4713
 8.28575  40.641
 8.36625  39.7377
 8.44675  38.4049
 8.52725  37.5512
 8.60775  36.3327
 8.68825  35.0487
 8.76875  33.8966
 8.84925  32.6812
 8.92975  31.7839
 9.01025  30.5207
 9.09075  29.7105
 9.17125  28.9635
 9.25175  27.9717
 9.33225  27.6345
 9.41275  27.2087
 9.49325  26.425
 9.57375  25.9164
 9.65425  25.6872
 9.73475  25.3246
 9.81525  24.9322
 9.89575  24.6344
 9.97625  24.366
 10.0567  24.0727
 10.1373  23.8553
 10.2178  23.6557
 10.2982  23.5449
 10.3788  23.4134
 10.4593  23.1574
 10.5397  23.1525
 10.6203  23.1194
 10.7007  22.8837
 10.7813  22.7476
 10.8618  22.7512
 10.9422  22.5273
 11.0228  22.4243
 11.1033  22.4156
 11.1837  22.2816
 11.2643  22.2883
 11.3447  22.3162
 11.4253  22.4868
 11.5058  22.6679
 11.5862  25.1896
 11.6668  23.0288
 11.7473  22.5708
 11.8277  22.3206
 11.9083  22.3044
 11.9887  23.1071
 12.0693  23.205
 12.1498  23.284
 12.2302  22.4049
 12.3108  22.3133
 12.3913  22.5005
 12.4718  22.529
 12.5523  22.6583
 12.6328  22.6027
 12.7133  22.8263
 12.7938  22.8872
 12.8742  23.1861
 12.9548  23.5803
 13.0353  23.965
 13.1158  24.7921
 13.1963  25.4644
 13.2768  26.5745
 13.3573  27.448
 13.4378  28.3679
 13.5183  29.2119
 13.5988  29.39
 13.6793  29.3608
 13.7598  29.0705
 13.8403  28.7872
 13.9208  29.5409
 14.0013  28.8077
 14.0818  27.2589
 14.1623  26.8424
 14.2428  26.3694
 14.3233  26.0913
 14.4038  25.7078
 14.4843  25.4955
 14.5648  25.4594
 14.6453  25.1792
 14.7258  25.0196
 14.8063  24.7999
 14.8868  24.7229
 14.9673  24.614
 15.0478  24.7204
 15.1283  24.7641
 15.2088  25.0982
 15.2892  24.5669
 15.3698  24.5423
 15.4503  24.4418
 15.5308  24.3506
 15.6113  24.2385
 15.6918  24.347
 15.7723  24.4295
 15.8528  24.4124
 15.9332  24.5496
 16.0138  24.5244
 16.0943  24.4978
 16.1748  24.7606
 16.2553  28.9003
 16.3358  25.0297
 16.4163  24.6463
 16.4967  24.4557
 16.5773  24.5035
 16.6578  24.3444
 16.7383  24.2688
 16.8188  24.1592
 16.8992  24.2196
 16.9798  24.1176
 17.0603  23.9685
 17.1408  24.0598
 17.2213  23.9928
 17.3017  23.9768
 17.3823  23.7959
 17.4628  23.7697
 17.5433  23.7426
 17.6238  23.6066
 17.7042  23.7079
 17.7847  23.6364
 17.8653  23.4874
 17.9458  23.5546
 18.0263  23.7253
 18.1068  24.2418
 18.1872  23.5925
 18.2678  23.3837
 18.3483  23.4864
 18.4288  23.4751
 18.5093  23.49
 18.5897  23.3938
 18.6703  23.2675
 18.7508  23.3058
 18.8313  23.2279
 18.9118  23.394
 18.9922  23.2483
 19.0727  23.2501
 19.1533  23.3955
 19.2338  23.2874
 19.3143  23.4474
 19.3948  23.4227
 19.4752  23.4596
 19.5558  23.4803
 19.6363  23.7292
 19.7168  24.7532
 19.7973  24.4404
 19.8777  25.5856
 19.9582  23.8344
 20.0388  23.5988
 20.1193  23.6141
 20.1998  23.5362
 20.2803  23.4429
 20.3607  23.5763
 20.4413  23.5787
 20.5218  23.5737
 20.6023  23.7801
 20.6828  23.9103
 20.7632  24.7513
 20.8438  23.8634
 20.9243  23.8446
 21.0048  23.7717
 21.0853  23.7629
 21.1658  23.8905
 21.2462  23.7613
 21.3268  23.7816
 21.4073  23.8297
 21.4878  23.8748
 21.5683  23.9511
 21.6487  23.9194
 21.7293  23.963
 21.8098  23.9261
 21.8903  23.9722
 21.9708  24.0565
 22.0512  24.1538
 22.1318  24.2521
 22.2123  24.2254
 22.2928  24.2777
 22.3733  24.3965
 22.4538  24.5142
 22.5343  24.5898
 22.6148  24.7862
 22.6953  25.0164
 22.7758  25.0961
 22.8563  25.4018
 22.9367  25.7785
 22.9943  26.0422