File: test-data-xrd/xrd-map-34-ID-E/Data_0081.chi
F:\20151113_APS_34IDE\\Brian\Particle1\OCV\Data_0081.tif
2-Theta Angle (Degrees)
Intensity
       2000
 0.07475  0.0000000E+00
 0.15525  0.0000000E+00
 0.23575  0.0000000E+00
 0.31625  0.0000000E+00
 0.39675  0.0000000E+00
 0.47725  0.0000000E+00
 0.55775  0.0000000E+00
 0.63825  0.0000000E+00
 0.71875  0.0000000E+00
 0.79925  0.0000000E+00
 0.87975  0.0000000E+00
 0.96025  0.0000000E+00
 1.04075  0.0000000E+00
 1.12125  0.0000000E+00
 1.20175  0.0000000E+00
 1.28225  0.0000000E+00
 1.36275  0.0000000E+00
 1.44325  0.0000000E+00
 1.52375  0.0000000E+00
 1.60425  0.0000000E+00
 1.68475  0.0000000E+00
 1.76525  0.0000000E+00
 1.84575  0.0000000E+00
 1.92625  0.0000000E+00
 2.00675  0.0000000E+00
 2.08725  0.0000000E+00
 2.16775  0.0000000E+00
 2.24825  0.0000000E+00
 2.32875  0.0000000E+00
 2.40925  0.0000000E+00
 2.48975  0.0000000E+00
 2.57025  0.0000000E+00
 2.65075  0.0000000E+00
 2.73125  0.0000000E+00
 2.81175  0.0000000E+00
 2.89225  34.2785
 2.97275  34.8694
 3.05325  35.5174
 3.13375  33.8733
 3.21425  34.4738
 3.29475  33.7048
 3.37525  33.4381
 3.45575  34.152
 3.53625  33.3768
 3.61675  33.1364
 3.69725  32.7835
 3.77775  32.8764
 3.85825  31.982
 3.93875  32.7366
 4.01925  31.616
 4.09975  32.0057
 4.18025  31.4985
 4.26075  31.2735
 4.34125  31.8322
 4.42175  32.1017
 4.50225  32.3554
 4.58275  32.3644
 4.66325  32.6121
 4.74375  32.5015
 4.82425  32.1033
 4.90475  32.6745
 4.98525  32.8759
 5.06575  33.3013
 5.14625  33.8225
 5.22675  33.7832
 5.30725  34.0988
 5.38775  34.4269
 5.46825  34.4053
 5.54875  34.9623
 5.62925  35.4583
 5.70975  36.0246
 5.79025  36.4669
 5.87075  38.5744
 5.95125  85.3846
 6.03175  79.864
 6.11225  39.3621
 6.19275  37.5105
 6.27325  37.7949
 6.35375  38.3271
 6.43425  38.5103
 6.51475  38.887
 6.59525  39.4728
 6.67575  39.9391
 6.75625  40.5054
 6.83675  41.3161
 6.91725  41.7153
 6.99775  42.1524
 7.07825  42.6629
 7.15875  43.3921
 7.23925  43.2218
 7.31975  43.5903
 7.40025  43.7234
 7.48075  43.6972
 7.56125  43.7865
 7.64175  44.1992
 7.72225  44.0812
 7.80275  43.8644
 7.88325  43.6365
 7.96375  43.3429
 8.04425  42.7565
 8.12475  42.3977
 8.20525  41.7405
 8.28575  40.9833
 8.36625  39.4644
 8.44675  38.4231
 8.52725  37.5515
 8.60775  35.9735
 8.68825  34.9265
 8.76875  33.6181
 8.84925  32.9028
 8.92975  31.5219
 9.01025  30.5086
 9.09075  29.7736
 9.17125  28.8904
 9.25175  28.0598
 9.33225  27.3521
 9.41275  26.8267
 9.49325  26.3223
 9.57375  25.6506
 9.65425  25.4262
 9.73475  25.2243
 9.81525  24.9745
 9.89575  24.6877
 9.97625  24.2849
 10.0567  24.1486
 10.1373  23.964
 10.2178  23.6785
 10.2982  23.6931
 10.3788  23.4868
 10.4593  23.309
 10.5397  23.1888
 10.6203  23.0395
 10.7007  23.18
 10.7813  22.8637
 10.8618  22.8321
 10.9422  22.7047
 11.0228  22.6791
 11.1033  22.501
 11.1837  22.5579
 11.2643  22.3106
 11.3447  22.5919
 11.4253  22.7939
 11.5058  23.1856
 11.5862  32.4459
 11.6668  24.7026
 11.7473  22.6646
 11.8277  22.6002
 11.9083  22.7756
 11.9887  24.3979
 12.0693  25.2131
 12.1498  25.9292
 12.2302  22.6091
 12.3108  22.6277
 12.3913  22.7184
 12.4718  22.6774
 12.5523  22.8098
 12.6328  22.9246
 12.7133  22.9529
 12.7938  23.0646
 12.8742  23.3717
 12.9548  23.8094
 13.0353  24.1952
 13.1158  24.8308
 13.1963  25.6036
 13.2768  26.5247
 13.3573  27.5338
 13.4378  28.3874
 13.5183  29.3297
 13.5988  29.7908
 13.6793  29.8357
 13.7598  29.5589
 13.8403  29.8975
 13.9208  37.2284
 14.0013  40.2011
 14.0818  28.2053
 14.1623  27.2644
 14.2428  26.5646
 14.3233  26.4495
 14.4038  25.9888
 14.4843  25.6511
 14.5648  25.3974
 14.6453  25.3394
 14.7258  25.4136
 14.8063  25.0723
 14.8868  24.9445
 14.9673  24.8801
 15.0478  25.0248
 15.1283  25.6998
 15.2088  30.8147
 15.2892  25.3577
 15.3698  24.8557
 15.4503  24.578
 15.5308  24.698
 15.6113  24.5509
 15.6918  24.5738
 15.7723  24.6631
 15.8528  24.6136
 15.9332  24.6449
 16.0138  24.4262
 16.0943  24.7288
 16.1748  24.8326
 16.2553  26.4302
 16.3358  25.0764
 16.4163  24.8781
 16.4967  24.8391
 16.5773  24.6524
 16.6578  24.5083
 16.7383  24.6274
 16.8188  24.5513
 16.8992  24.3911
 16.9798  24.3138
 17.0603  24.2327
 17.1408  24.3372
 17.2213  24.2596
 17.3017  24.1981
 17.3823  24.0271
 17.4628  24.123
 17.5433  23.9642
 17.6238  23.966
 17.7042  23.8693
 17.7847  23.8293
 17.8653  23.9014
 17.9458  24.1221
 18.0263  25.6046
 18.1068  28.7248
 18.1872  24.7674
 18.2678  23.8606
 18.3483  23.7799
 18.4288  23.7703
 18.5093  23.7391
 18.5897  23.6323
 18.6703  23.6431
 18.7508  23.5401
 18.8313  23.5633
 18.9118  23.6338
 18.9922  23.5466
 19.0727  23.7592
 19.1533  23.6782
 19.2338  23.6646
 19.3143  23.6442
 19.3948  23.8007
 19.4752  23.9943
 19.5558  24.0889
 19.6363  25.0338
 19.7168  32.8396
 19.7973  28.3674
 19.8777  37.0156
 19.9582  25.0613
 20.0388  24.2881
 20.1193  24.0518
 20.1998  24.0143
 20.2803  23.9173
 20.3607  23.9726
 20.4413  23.8405
 20.5218  23.8107
 20.6023  24.0837
 20.6828  24.6735
 20.7632  29.282
 20.8438  25.1581
 20.9243  24.2443
 21.0048  24.0726
 21.0853  24.082
 21.1658  23.9184
 21.2462  23.9533
 21.3268  24.0779
 21.4073  23.875
 21.4878  24.0803
 21.5683  24.0044
 21.6487  24.2113
 21.7293  24.4575
 21.8098  24.2719
 21.8903  24.2096
 21.9708  24.3155
 22.0512  24.3078
 22.1318  24.3117
 22.2123  24.3809
 22.2928  24.6675
 22.3733  24.7209
 22.4538  24.7545
 22.5343  24.811
 22.6148  24.9827
 22.6953  25.1656
 22.7758  25.4715
 22.8563  25.6228
 22.9367  26.0576
 22.9943  26.3495