File: test-data-xrd/xrd-map-34-ID-E/Data_0110.chi
F:\20151113_APS_34IDE\\Brian\Particle1\OCV\Data_0110.tif
2-Theta Angle (Degrees)
Intensity
       2000
 0.07475  0.0000000E+00
 0.15525  0.0000000E+00
 0.23575  0.0000000E+00
 0.31625  0.0000000E+00
 0.39675  0.0000000E+00
 0.47725  0.0000000E+00
 0.55775  0.0000000E+00
 0.63825  0.0000000E+00
 0.71875  0.0000000E+00
 0.79925  0.0000000E+00
 0.87975  0.0000000E+00
 0.96025  0.0000000E+00
 1.04075  0.0000000E+00
 1.12125  0.0000000E+00
 1.20175  0.0000000E+00
 1.28225  0.0000000E+00
 1.36275  0.0000000E+00
 1.44325  0.0000000E+00
 1.52375  0.0000000E+00
 1.60425  0.0000000E+00
 1.68475  0.0000000E+00
 1.76525  0.0000000E+00
 1.84575  0.0000000E+00
 1.92625  0.0000000E+00
 2.00675  0.0000000E+00
 2.08725  0.0000000E+00
 2.16775  0.0000000E+00
 2.24825  0.0000000E+00
 2.32875  0.0000000E+00
 2.40925  0.0000000E+00
 2.48975  0.0000000E+00
 2.57025  0.0000000E+00
 2.65075  0.0000000E+00
 2.73125  0.0000000E+00
 2.81175  0.0000000E+00
 2.89225  35.3945
 2.97275  34.9528
 3.05325  35.675
 3.13375  35.9621
 3.21425  35.492
 3.29475  34.8137
 3.37525  34.1208
 3.45575  33.8118
 3.53625  34.1413
 3.61675  33.9659
 3.69725  33.7675
 3.77775  32.9376
 3.85825  32.8494
 3.93875  32.5182
 4.01925  32.8868
 4.09975  32.3046
 4.18025  32.1524
 4.26075  32.4952
 4.34125  32.1537
 4.42175  32.3374
 4.50225  32.2919
 4.58275  32.9174
 4.66325  33.1104
 4.74375  32.7504
 4.82425  32.5031
 4.90475  32.8454
 4.98525  32.6774
 5.06575  33.4467
 5.14625  33.6243
 5.22675  33.7201
 5.30725  34.1923
 5.38775  34.3771
 5.46825  34.3746
 5.54875  34.6959
 5.62925  35.0114
 5.70975  35.0403
 5.79025  35.4353
 5.87075  36.0663
 5.95125  38.0622
 6.03175  36.9087
 6.11225  36.4941
 6.19275  36.7108
 6.27325  37.1905
 6.35375  37.8006
 6.43425  38.2616
 6.51475  39.0233
 6.59525  39.4051
 6.67575  39.9304
 6.75625  40.6882
 6.83675  41.3206
 6.91725  42.0316
 6.99775  42.3389
 7.07825  42.431
 7.15875  43.0273
 7.23925  43.2603
 7.31975  43.3679
 7.40025  44.1495
 7.48075  44.316
 7.56125  44.4871
 7.64175  44.1095
 7.72225  44.3139
 7.80275  43.9771
 7.88325  43.7927
 7.96375  43.6385
 8.04425  43.2221
 8.12475  42.5681
 8.20525  41.7397
 8.28575  40.8185
 8.36625  39.8649
 8.44675  38.4627
 8.52725  37.3724
 8.60775  36.1523
 8.68825  35.0831
 8.76875  33.7014
 8.84925  32.6563
 8.92975  31.681
 9.01025  30.5527
 9.09075  29.7772
 9.17125  28.8781
 9.25175  28.0055
 9.33225  27.3794
 9.41275  26.8039
 9.49325  26.4577
 9.57375  25.5968
 9.65425  25.4354
 9.73475  25.0153
 9.81525  24.8363
 9.89575  24.5485
 9.97625  24.1472
 10.0567  23.8892
 10.1373  23.6104
 10.2178  23.6176
 10.2982  23.3182
 10.3788  23.0729
 10.4593  23.0424
 10.5397  23.0525
 10.6203  22.8056
 10.7007  22.8087
 10.7813  22.5146
 10.8618  22.5201
 10.9422  22.4591
 11.0228  22.3258
 11.1033  22.1976
 11.1837  22.3392
 11.2643  22.1765
 11.3447  22.2209
 11.4253  22.5866
 11.5058  22.3843
 11.5862  26.1572
 11.6668  22.4393
 11.7473  22.2194
 11.8277  22.2501
 11.9083  22.0824
 11.9887  22.4129
 12.0693  22.5233
 12.1498  22.4604
 12.2302  22.1904
 12.3108  22.2727
 12.3913  22.1677
 12.4718  22.3313
 12.5523  22.3862
 12.6328  22.4639
 12.7133  22.7114
 12.7938  22.8785
 12.8742  23.1025
 12.9548  23.6764
 13.0353  23.999
 13.1158  24.6788
 13.1963  25.3298
 13.2768  26.4043
 13.3573  27.4941
 13.4378  28.4419
 13.5183  28.9973
 13.5988  29.2573
 13.6793  29.3686
 13.7598  28.8371
 13.8403  28.6029
 13.9208  29.229
 14.0013  28.1307
 14.0818  27.1692
 14.1623  26.735
 14.2428  26.1871
 14.3233  25.7486
 14.4038  25.664
 14.4843  25.3142
 14.5648  25.3059
 14.6453  24.9866
 14.7258  24.878
 14.8063  24.6993
 14.8868  24.5502
 14.9673  24.6041
 15.0478  24.7057
 15.1283  25.5191
 15.2088  27.5393
 15.2892  24.4648
 15.3698  24.4184
 15.4503  24.2911
 15.5308  24.1802
 15.6113  24.1995
 15.6918  24.2931
 15.7723  24.372
 15.8528  24.3008
 15.9332  24.3471
 16.0138  24.3978
 16.0943  24.3801
 16.1748  24.6223
 16.2553  24.9094
 16.3358  24.482
 16.4163  24.3671
 16.4967  24.2937
 16.5773  24.2972
 16.6578  24.2564
 16.7383  24.2172
 16.8188  24.1282
 16.8992  24.1259
 16.9798  24.0598
 17.0603  23.9097
 17.1408  23.9803
 17.2213  23.8783
 17.3017  23.8212
 17.3823  23.6933
 17.4628  23.6457
 17.5433  23.569
 17.6238  23.6183
 17.7042  23.4754
 17.7847  23.5726
 17.8653  23.5129
 17.9458  23.5682
 18.0263  24.0696
 18.1068  26.5902
 18.1872  23.5004
 18.2678  23.3843
 18.3483  23.223
 18.4288  23.0453
 18.5093  23.2432
 18.5897  23.2779
 18.6703  23.1482
 18.7508  23.0475
 18.8313  23.1657
 18.9118  23.0861
 18.9922  23.1097
 19.0727  23.1691
 19.1533  23.2424
 19.2338  23.2269
 19.3143  23.2243
 19.3948  23.2016
 19.4752  23.2113
 19.5558  23.2224
 19.6363  23.2802
 19.7168  23.8748
 19.7973  23.5726
 19.8777  23.7121
 19.9582  23.3145
 20.0388  23.3571
 20.1193  23.3161
 20.1998  23.5099
 20.2803  23.4257
 20.3607  23.4597
 20.4413  23.4578
 20.5218  23.3967
 20.6023  23.5652
 20.6828  23.5984
 20.7632  24.0114
 20.8438  23.5831
 20.9243  23.6083
 21.0048  23.496
 21.0853  23.5261
 21.1658  23.5477
 21.2462  23.4625
 21.3268  23.5981
 21.4073  23.7187
 21.4878  23.6297
 21.5683  23.6695
 21.6487  23.8277
 21.7293  23.7406
 21.8098  23.8142
 21.8903  23.9051
 21.9708  23.8469
 22.0512  23.8849
 22.1318  23.9753
 22.2123  24.0241
 22.2928  24.139
 22.3733  24.132
 22.4538  24.2744
 22.5343  24.4228
 22.6148  24.5996
 22.6953  24.7263
 22.7758  24.8884
 22.8563  25.0944
 22.9367  25.6561
 22.9943  25.9278