File: test-data-xrd/xrd-map-34-ID-E/Data_0084.chi
F:\20151113_APS_34IDE\\Brian\Particle1\OCV\Data_0084.tif
2-Theta Angle (Degrees)
Intensity
       2000
 0.07475  0.0000000E+00
 0.15525  0.0000000E+00
 0.23575  0.0000000E+00
 0.31625  0.0000000E+00
 0.39675  0.0000000E+00
 0.47725  0.0000000E+00
 0.55775  0.0000000E+00
 0.63825  0.0000000E+00
 0.71875  0.0000000E+00
 0.79925  0.0000000E+00
 0.87975  0.0000000E+00
 0.96025  0.0000000E+00
 1.04075  0.0000000E+00
 1.12125  0.0000000E+00
 1.20175  0.0000000E+00
 1.28225  0.0000000E+00
 1.36275  0.0000000E+00
 1.44325  0.0000000E+00
 1.52375  0.0000000E+00
 1.60425  0.0000000E+00
 1.68475  0.0000000E+00
 1.76525  0.0000000E+00
 1.84575  0.0000000E+00
 1.92625  0.0000000E+00
 2.00675  0.0000000E+00
 2.08725  0.0000000E+00
 2.16775  0.0000000E+00
 2.24825  0.0000000E+00
 2.32875  0.0000000E+00
 2.40925  0.0000000E+00
 2.48975  0.0000000E+00
 2.57025  0.0000000E+00
 2.65075  0.0000000E+00
 2.73125  0.0000000E+00
 2.81175  0.0000000E+00
 2.89225  35.2502
 2.97275  35.0994
 3.05325  36.1518
 3.13375  35.5315
 3.21425  36.6125
 3.29475  36.5187
 3.37525  35.7467
 3.45575  34.6506
 3.53625  33.3217
 3.61675  33.8466
 3.69725  33.4184
 3.77775  33.5789
 3.85825  33.0889
 3.93875  32.4723
 4.01925  33.0797
 4.09975  32.2431
 4.18025  32.5418
 4.26075  32.7445
 4.34125  32.786
 4.42175  32.6013
 4.50225  32.666
 4.58275  32.7259
 4.66325  32.8951
 4.74375  33.0692
 4.82425  32.7749
 4.90475  32.8229
 4.98525  32.8997
 5.06575  33.2832
 5.14625  33.7586
 5.22675  34.2035
 5.30725  34.2578
 5.38775  34.3306
 5.46825  34.9497
 5.54875  35.3743
 5.62925  35.286
 5.70975  36.1385
 5.79025  36.1129
 5.87075  36.8918
 5.95125  45.244
 6.03175  44.5447
 6.11225  37.3152
 6.19275  37.1463
 6.27325  37.6912
 6.35375  38.1208
 6.43425  38.7312
 6.51475  39.0908
 6.59525  39.7808
 6.67575  40.3328
 6.75625  40.7507
 6.83675  41.2434
 6.91725  41.9162
 6.99775  42.3843
 7.07825  43.0215
 7.15875  43.2827
 7.23925  43.9936
 7.31975  44.1504
 7.40025  44.1028
 7.48075  44.3448
 7.56125  44.5422
 7.64175  44.3642
 7.72225  44.2263
 7.80275  44.1369
 7.88325  44.0405
 7.96375  43.592
 8.04425  43.3201
 8.12475  42.6304
 8.20525  41.7228
 8.28575  41.0135
 8.36625  39.96
 8.44675  38.8951
 8.52725  37.6231
 8.60775  36.317
 8.68825  35.2269
 8.76875  33.8872
 8.84925  33.047
 8.92975  31.8156
 9.01025  30.7454
 9.09075  29.916
 9.17125  29.0734
 9.25175  28.2859
 9.33225  27.4229
 9.41275  27.0884
 9.49325  26.7611
 9.57375  26.0017
 9.65425  25.7046
 9.73475  25.3802
 9.81525  24.9789
 9.89575  24.6951
 9.97625  24.4852
 10.0567  24.1623
 10.1373  24.0076
 10.2178  24.0217
 10.2982  23.7024
 10.3788  23.6413
 10.4593  23.2897
 10.5397  23.2451
 10.6203  23.1336
 10.7007  23.1095
 10.7813  23.0718
 10.8618  22.936
 10.9422  22.8267
 11.0228  22.6056
 11.1033  22.7701
 11.1837  22.7159
 11.2643  22.6622
 11.3447  22.5864
 11.4253  23.1295
 11.5058  23.4327
 11.5862  31.2775
 11.6668  24.4547
 11.7473  22.7317
 11.8277  22.6921
 11.9083  22.7419
 11.9887  23.9576
 12.0693  25.8741
 12.1498  23.9478
 12.2302  22.6498
 12.3108  22.7043
 12.3913  22.7368
 12.4718  22.7445
 12.5523  22.8956
 12.6328  22.9326
 12.7133  23.0665
 12.7938  23.1763
 12.8742  23.4868
 12.9548  23.7977
 13.0353  24.3457
 13.1158  25.0947
 13.1963  25.8956
 13.2768  26.8548
 13.3573  27.8022
 13.4378  28.6252
 13.5183  29.5369
 13.5988  29.9943
 13.6793  30.1393
 13.7598  30.0911
 13.8403  31.1122
 13.9208  49.6897
 14.0013  57.7841
 14.0818  29.3762
 14.1623  27.7961
 14.2428  26.9788
 14.3233  26.5633
 14.4038  26.0326
 14.4843  25.838
 14.5648  25.8074
 14.6453  25.5387
 14.7258  25.2862
 14.8063  25.1342
 14.8868  25.0369
 14.9673  24.9078
 15.0478  24.9459
 15.1283  25.3912
 15.2088  27.0709
 15.2892  25.0047
 15.3698  24.7765
 15.4503  24.6593
 15.5308  24.6108
 15.6113  24.5611
 15.6918  24.7079
 15.7723  24.742
 15.8528  24.7443
 15.9332  24.7781
 16.0138  24.766
 16.0943  24.8912
 16.1748  24.993
 16.2553  25.7442
 16.3358  25.2239
 16.4163  24.7056
 16.4967  24.7307
 16.5773  24.7121
 16.6578  24.6558
 16.7383  24.6431
 16.8188  24.6713
 16.8992  24.5925
 16.9798  24.4125
 17.0603  24.3255
 17.1408  24.2515
 17.2213  24.2061
 17.3017  24.1406
 17.3823  24.196
 17.4628  24.0858
 17.5433  23.9634
 17.6238  24.0185
 17.7042  24.0214
 17.7847  23.9496
 17.8653  24.0016
 17.9458  23.9339
 18.0263  24.607
 18.1068  26.7079
 18.1872  24.4241
 18.2678  23.8262
 18.3483  23.8085
 18.4288  23.6582
 18.5093  23.7313
 18.5897  23.6361
 18.6703  23.695
 18.7508  23.4966
 18.8313  23.5639
 18.9118  23.667
 18.9922  23.5836
 19.0727  23.7705
 19.1533  23.7115
 19.2338  23.7828
 19.3143  24.0447
 19.3948  23.9543
 19.4752  23.8808
 19.5558  24.2049
 19.6363  24.9767
 19.7168  28.7488
 19.7973  31.3771
 19.8777  36.0182
 19.9582  25.1454
 20.0388  24.4561
 20.1193  24.157
 20.1998  24.0289
 20.2803  23.9018
 20.3607  23.8208
 20.4413  23.9964
 20.5218  23.8801
 20.6023  24.1663
 20.6828  25.093
 20.7632  29.3024
 20.8438  24.8375
 20.9243  24.2029
 21.0048  24.2202
 21.0853  24.1139
 21.1658  24.0972
 21.2462  23.9626
 21.3268  24.0621
 21.4073  24.1533
 21.4878  24.106
 21.5683  24.1355
 21.6487  24.2095
 21.7293  24.2086
 21.8098  24.3275
 21.8903  24.3881
 21.9708  24.4172
 22.0512  24.4343
 22.1318  24.6531
 22.2123  24.4941
 22.2928  24.5661
 22.3733  24.7559
 22.4538  24.8453
 22.5343  25.0123
 22.6148  25.1701
 22.6953  25.1742
 22.7758  25.423
 22.8563  25.7466
 22.9367  26.1905
 22.9943  26.7424