File: test-data-xrd/xrd-map-34-ID-E/Data_0002.chi
F:\20151113_APS_34IDE\\Brian\Particle1\OCV\Data_0002.tif
2-Theta Angle (Degrees)
Intensity
       2000
 0.07475  0.0000000E+00
 0.15525  0.0000000E+00
 0.23575  0.0000000E+00
 0.31625  0.0000000E+00
 0.39675  0.0000000E+00
 0.47725  0.0000000E+00
 0.55775  0.0000000E+00
 0.63825  0.0000000E+00
 0.71875  0.0000000E+00
 0.79925  0.0000000E+00
 0.87975  0.0000000E+00
 0.96025  0.0000000E+00
 1.04075  0.0000000E+00
 1.12125  0.0000000E+00
 1.20175  0.0000000E+00
 1.28225  0.0000000E+00
 1.36275  0.0000000E+00
 1.44325  0.0000000E+00
 1.52375  0.0000000E+00
 1.60425  0.0000000E+00
 1.68475  0.0000000E+00
 1.76525  0.0000000E+00
 1.84575  0.0000000E+00
 1.92625  0.0000000E+00
 2.00675  0.0000000E+00
 2.08725  0.0000000E+00
 2.16775  0.0000000E+00
 2.24825  0.0000000E+00
 2.32875  0.0000000E+00
 2.40925  0.0000000E+00
 2.48975  0.0000000E+00
 2.57025  0.0000000E+00
 2.65075  0.0000000E+00
 2.73125  0.0000000E+00
 2.81175  0.0000000E+00
 2.89225  34.961
 2.97275  34.3955
 3.05325  34.5974
 3.13375  35.1527
 3.21425  34.2336
 3.29475  33.9692
 3.37525  34.2641
 3.45575  34.425
 3.53625  33.7381
 3.61675  33.6936
 3.69725  33.4046
 3.77775  32.8748
 3.85825  32.5887
 3.93875  32.4306
 4.01925  32.8006
 4.09975  32.5302
 4.18025  32.3054
 4.26075  32.3632
 4.34125  32.457
 4.42175  32.3469
 4.50225  32.491
 4.58275  32.6506
 4.66325  32.7635
 4.74375  32.9251
 4.82425  32.5993
 4.90475  32.9796
 4.98525  33.0844
 5.06575  33.2288
 5.14625  33.6061
 5.22675  33.9347
 5.30725  34.2196
 5.38775  34.4
 5.46825  34.5802
 5.54875  34.9849
 5.62925  34.9834
 5.70975  35.3741
 5.79025  35.5214
 5.87075  35.8706
 5.95125  37.9558
 6.03175  37.7008
 6.11225  36.8864
 6.19275  37.0034
 6.27325  37.4072
 6.35375  38.2279
 6.43425  38.8263
 6.51475  39.2916
 6.59525  39.9483
 6.67575  40.2816
 6.75625  40.8896
 6.83675  41.4421
 6.91725  42.4215
 6.99775  42.4074
 7.07825  42.9805
 7.15875  43.3447
 7.23925  43.7791
 7.31975  44.4168
 7.40025  44.3427
 7.48075  44.7294
 7.56125  44.766
 7.64175  44.5859
 7.72225  45.0253
 7.80275  44.9423
 7.88325  44.7112
 7.96375  44.506
 8.04425  43.8337
 8.12475  43.5285
 8.20525  42.4849
 8.28575  41.8241
 8.36625  40.7962
 8.44675  39.4728
 8.52725  38.5335
 8.60775  36.8515
 8.68825  36.0908
 8.76875  34.6885
 8.84925  33.4969
 8.92975  32.3936
 9.01025  31.3333
 9.09075  30.6496
 9.17125  29.5831
 9.25175  28.7519
 9.33225  28.1503
 9.41275  27.6213
 9.49325  27.2845
 9.57375  26.4074
 9.65425  26.124
 9.73475  25.8182
 9.81525  25.6049
 9.89575  25.0893
 9.97625  24.7921
 10.0567  24.5204
 10.1373  24.4234
 10.2178  24.3179
 10.2982  24.0253
 10.3788  23.9113
 10.4593  23.6979
 10.5397  23.6752
 10.6203  23.3124
 10.7007  23.2431
 10.7813  23.1674
 10.8618  23.0919
 10.9422  22.8449
 11.0228  22.8681
 11.1033  22.794
 11.1837  22.8441
 11.2643  22.6175
 11.3447  22.5013
 11.4253  23.0123
 11.5058  22.9481
 11.5862  25.283
 11.6668  22.8536
 11.7473  22.7343
 11.8277  22.4125
 11.9083  22.521
 11.9887  22.9525
 12.0693  22.9397
 12.1498  22.8787
 12.2302  22.7265
 12.3108  22.7275
 12.3913  22.6935
 12.4718  22.8268
 12.5523  22.7455
 12.6328  22.991
 12.7133  23.102
 12.7938  23.3918
 12.8742  23.5825
 12.9548  23.93
 13.0353  24.2025
 13.1158  25.1247
 13.1963  25.8388
 13.2768  26.8858
 13.3573  27.9772
 13.4378  28.8891
 13.5183  29.6465
 13.5988  29.9651
 13.6793  29.8429
 13.7598  29.5164
 13.8403  29.242
 13.9208  30.958
 14.0013  29.673
 14.0818  27.6381
 14.1623  27.064
 14.2428  26.7515
 14.3233  26.2979
 14.4038  26.0338
 14.4843  25.7815
 14.5648  25.6999
 14.6453  25.4655
 14.7258  25.3258
 14.8063  25.2479
 14.8868  24.9556
 14.9673  24.9942
 15.0478  24.9122
 15.1283  24.9172
 15.2088  25.2902
 15.2892  24.7063
 15.3698  24.7944
 15.4503  24.7225
 15.5308  24.7219
 15.6113  24.6308
 15.6918  24.8673
 15.7723  24.9392
 15.8528  24.7789
 15.9332  24.7954
 16.0138  24.9074
 16.0943  25.0412
 16.1748  25.381
 16.2553  29.0298
 16.3358  25.3746
 16.4163  25.0806
 16.4967  24.7981
 16.5773  24.8229
 16.6578  24.8022
 16.7383  24.7407
 16.8188  24.5467
 16.8992  24.5151
 16.9798  24.4226
 17.0603  24.3304
 17.1408  24.5348
 17.2213  24.3161
 17.3017  24.2388
 17.3823  24.19
 17.4628  24.0443
 17.5433  24.0692
 17.6238  24.0558
 17.7042  23.9847
 17.7847  24.9665
 17.8653  23.9134
 17.9458  23.8235
 18.0263  23.917
 18.1068  24.2326
 18.1872  23.7928
 18.2678  23.7428
 18.3483  23.648
 18.4288  23.8169
 18.5093  23.651
 18.5897  23.7195
 18.6703  23.6611
 18.7508  23.6279
 18.8313  23.4963
 18.9118  23.6327
 18.9922  23.6801
 19.0727  23.6816
 19.1533  23.702
 19.2338  23.6173
 19.3143  25.0647
 19.3948  23.7952
 19.4752  23.7229
 19.5558  23.7422
 19.6363  23.7552
 19.7168  24.3648
 19.7973  24.0215
 19.8777  24.5905
 19.9582  23.7919
 20.0388  23.7883
 20.1193  23.8267
 20.1998  23.8761
 20.2803  23.8167
 20.3607  23.7916
 20.4413  23.9481
 20.5218  23.8631
 20.6023  23.8836
 20.6828  24.0228
 20.7632  24.4264
 20.8438  24.0388
 20.9243  24.0984
 21.0048  24.0094
 21.0853  24.0104
 21.1658  23.9664
 21.2462  23.9888
 21.3268  23.9886
 21.4073  24.1769
 21.4878  24.0879
 21.5683  24.1693
 21.6487  24.2148
 21.7293  24.2371
 21.8098  24.2843
 21.8903  24.3189
 21.9708  24.3546
 22.0512  24.4835
 22.1318  24.4293
 22.2123  24.4252
 22.2928  24.5617
 22.3733  24.6791
 22.4538  24.7901
 22.5343  24.8658
 22.6148  24.9049
 22.6953  25.1924
 22.7758  25.3218
 22.8563  25.6043
 22.9367  26.0931
 22.9943  26.2395