File: test-data-xrd/xrd-map-34-ID-E/Data_0037.chi
F:\20151113_APS_34IDE\\Brian\Particle1\OCV\Data_0037.tif
2-Theta Angle (Degrees)
Intensity
       2000
 0.07475  0.0000000E+00
 0.15525  0.0000000E+00
 0.23575  0.0000000E+00
 0.31625  0.0000000E+00
 0.39675  0.0000000E+00
 0.47725  0.0000000E+00
 0.55775  0.0000000E+00
 0.63825  0.0000000E+00
 0.71875  0.0000000E+00
 0.79925  0.0000000E+00
 0.87975  0.0000000E+00
 0.96025  0.0000000E+00
 1.04075  0.0000000E+00
 1.12125  0.0000000E+00
 1.20175  0.0000000E+00
 1.28225  0.0000000E+00
 1.36275  0.0000000E+00
 1.44325  0.0000000E+00
 1.52375  0.0000000E+00
 1.60425  0.0000000E+00
 1.68475  0.0000000E+00
 1.76525  0.0000000E+00
 1.84575  0.0000000E+00
 1.92625  0.0000000E+00
 2.00675  0.0000000E+00
 2.08725  0.0000000E+00
 2.16775  0.0000000E+00
 2.24825  0.0000000E+00
 2.32875  0.0000000E+00
 2.40925  0.0000000E+00
 2.48975  0.0000000E+00
 2.57025  0.0000000E+00
 2.65075  0.0000000E+00
 2.73125  0.0000000E+00
 2.81175  0.0000000E+00
 2.89225  34.0413
 2.97275  35.7644
 3.05325  35.2628
 3.13375  35.1901
 3.21425  35.2866
 3.29475  34.9219
 3.37525  34.0333
 3.45575  33.8414
 3.53625  33.3125
 3.61675  32.8011
 3.69725  32.494
 3.77775  32.6066
 3.85825  32.5527
 3.93875  31.6554
 4.01925  32.0961
 4.09975  31.5854
 4.18025  32.0044
 4.26075  32.2293
 4.34125  31.9537
 4.42175  32.4662
 4.50225  32.6191
 4.58275  32.5342
 4.66325  32.8678
 4.74375  32.3053
 4.82425  32.1573
 4.90475  32.6212
 4.98525  32.8683
 5.06575  32.9788
 5.14625  33.3586
 5.22675  33.3487
 5.30725  34.1987
 5.38775  34.2962
 5.46825  34.6882
 5.54875  34.7462
 5.62925  35.5717
 5.70975  35.9471
 5.79025  36.3571
 5.87075  37.5545
 5.95125  68.1367
 6.03175  59.0776
 6.11225  38.3357
 6.19275  37.3801
 6.27325  37.6426
 6.35375  38.1131
 6.43425  38.2594
 6.51475  38.9406
 6.59525  39.6317
 6.67575  39.968
 6.75625  40.2607
 6.83675  41.0636
 6.91725  41.7107
 6.99775  41.9281
 7.07825  42.5098
 7.15875  43.1811
 7.23925  43.4966
 7.31975  43.3994
 7.40025  43.7181
 7.48075  44.1351
 7.56125  44.1763
 7.64175  44.0918
 7.72225  44.2461
 7.80275  44.031
 7.88325  43.8873
 7.96375  43.4605
 8.04425  43.0953
 8.12475  42.6909
 8.20525  41.9301
 8.28575  40.7715
 8.36625  39.8505
 8.44675  38.8966
 8.52725  37.7044
 8.60775  36.4257
 8.68825  35.2506
 8.76875  34.1985
 8.84925  32.8164
 8.92975  31.9228
 9.01025  30.8671
 9.09075  29.9408
 9.17125  29.2179
 9.25175  28.2859
 9.33225  28.011
 9.41275  27.4245
 9.49325  26.8867
 9.57375  26.2318
 9.65425  25.6469
 9.73475  25.4498
 9.81525  25.1594
 9.89575  24.9901
 9.97625  24.5568
 10.0567  24.5265
 10.1373  24.2825
 10.2178  24.0882
 10.2982  23.9624
 10.3788  23.6201
 10.4593  23.5501
 10.5397  23.601
 10.6203  23.4107
 10.7007  23.1842
 10.7813  23.0894
 10.8618  23.1663
 10.9422  23.0197
 11.0228  22.9266
 11.1033  22.8451
 11.1837  22.7231
 11.2643  22.7141
 11.3447  22.9118
 11.4253  23.335
 11.5058  24.1796
 11.5862  32.7068
 11.6668  27.6953
 11.7473  23.1417
 11.8277  22.926
 11.9083  22.9032
 11.9887  24.6603
 12.0693  24.3002
 12.1498  24.2792
 12.2302  22.9726
 12.3108  22.9377
 12.3913  23.004
 12.4718  22.9707
 12.5523  22.9835
 12.6328  23.1581
 12.7133  23.3165
 12.7938  23.2889
 12.8742  23.4831
 12.9548  23.8997
 13.0353  24.452
 13.1158  25.1415
 13.1963  25.8681
 13.2768  26.9039
 13.3573  27.9003
 13.4378  28.7577
 13.5183  29.4411
 13.5988  29.7866
 13.6793  30.0391
 13.7598  29.9359
 13.8403  30.4498
 13.9208  48.6884
 14.0013  47.0129
 14.0818  29.1865
 14.1623  27.8093
 14.2428  27.0634
 14.3233  26.559
 14.4038  26.1856
 14.4843  25.7561
 14.5648  25.7708
 14.6453  25.7426
 14.7258  25.468
 14.8063  25.1776
 14.8868  25.1408
 14.9673  25.0122
 15.0478  25.269
 15.1283  25.8789
 15.2088  30.7821
 15.2892  25.3777
 15.3698  24.8436
 15.4503  24.8953
 15.5308  24.6902
 15.6113  24.6118
 15.6918  24.7722
 15.7723  24.7855
 15.8528  24.795
 15.9332  24.8961
 16.0138  24.8494
 16.0943  25.0247
 16.1748  25
 16.2553  26.6212
 16.3358  25.2083
 16.4163  24.9726
 16.4967  24.9509
 16.5773  24.9355
 16.6578  24.7391
 16.7383  24.7069
 16.8188  24.5994
 16.8992  24.5711
 16.9798  24.5328
 17.0603  24.4586
 17.1408  24.3965
 17.2213  24.3935
 17.3017  24.2882
 17.3823  24.3186
 17.4628  24.2
 17.5433  24.1851
 17.6238  24.1647
 17.7042  24.085
 17.7847  24.063
 17.8653  24.1725
 17.9458  24.402
 18.0263  25.8378
 18.1068  34.0747
 18.1872  25.1075
 18.2678  24.1403
 18.3483  23.8901
 18.4288  23.8573
 18.5093  23.736
 18.5897  23.764
 18.6703  23.6681
 18.7508  23.7125
 18.8313  23.7505
 18.9118  23.7123
 18.9922  23.7036
 19.0727  23.6884
 19.1533  23.8404
 19.2338  23.6995
 19.3143  23.918
 19.3948  24.0232
 19.4752  24.0002
 19.5558  24.084
 19.6363  25.1752
 19.7168  33.0837
 19.7973  27.063
 19.8777  30.3413
 19.9582  24.7055
 20.0388  24.1639
 20.1193  24.0812
 20.1998  23.9674
 20.2803  24.0561
 20.3607  24.0456
 20.4413  24.1063
 20.5218  23.9867
 20.6023  24.1087
 20.6828  24.6102
 20.7632  27.8308
 20.8438  25.2726
 20.9243  24.2648
 21.0048  24.1789
 21.0853  24.0981
 21.1658  24.1548
 21.2462  24.1098
 21.3268  24.1112
 21.4073  24.1763
 21.4878  24.2508
 21.5683  24.2064
 21.6487  24.2539
 21.7293  24.3086
 21.8098  24.3876
 21.8903  24.4316
 21.9708  24.3485
 22.0512  24.4791
 22.1318  24.608
 22.2123  24.7128
 22.2928  24.7696
 22.3733  24.7547
 22.4538  24.9739
 22.5343  24.9669
 22.6148  25.1952
 22.6953  25.4397
 22.7758  25.6645
 22.8563  25.8325
 22.9367  26.3135
 22.9943  26.6038