File: test-data-xrd/xrd-map-34-ID-E/Data_0098.chi
F:\20151113_APS_34IDE\\Brian\Particle1\OCV\Data_0098.tif
2-Theta Angle (Degrees)
Intensity
       2000
 0.07475  0.0000000E+00
 0.15525  0.0000000E+00
 0.23575  0.0000000E+00
 0.31625  0.0000000E+00
 0.39675  0.0000000E+00
 0.47725  0.0000000E+00
 0.55775  0.0000000E+00
 0.63825  0.0000000E+00
 0.71875  0.0000000E+00
 0.79925  0.0000000E+00
 0.87975  0.0000000E+00
 0.96025  0.0000000E+00
 1.04075  0.0000000E+00
 1.12125  0.0000000E+00
 1.20175  0.0000000E+00
 1.28225  0.0000000E+00
 1.36275  0.0000000E+00
 1.44325  0.0000000E+00
 1.52375  0.0000000E+00
 1.60425  0.0000000E+00
 1.68475  0.0000000E+00
 1.76525  0.0000000E+00
 1.84575  0.0000000E+00
 1.92625  0.0000000E+00
 2.00675  0.0000000E+00
 2.08725  0.0000000E+00
 2.16775  0.0000000E+00
 2.24825  0.0000000E+00
 2.32875  0.0000000E+00
 2.40925  0.0000000E+00
 2.48975  0.0000000E+00
 2.57025  0.0000000E+00
 2.65075  0.0000000E+00
 2.73125  0.0000000E+00
 2.81175  0.0000000E+00
 2.89225  35.9233
 2.97275  36.5497
 3.05325  36.1077
 3.13375  35.5951
 3.21425  36.0194
 3.29475  36.2732
 3.37525  35.9462
 3.45575  34.7479
 3.53625  33.7224
 3.61675  33.7206
 3.69725  33.2141
 3.77775  33.4223
 3.85825  32.9026
 3.93875  33.5231
 4.01925  33.135
 4.09975  32.3658
 4.18025  32.4424
 4.26075  32.3789
 4.34125  32.3424
 4.42175  32.833
 4.50225  33.1187
 4.58275  33.1597
 4.66325  33.5749
 4.74375  33.1167
 4.82425  32.9522
 4.90475  33.332
 4.98525  33.185
 5.06575  33.6882
 5.14625  34.0582
 5.22675  34.1462
 5.30725  34.4425
 5.38775  35.0511
 5.46825  34.9372
 5.54875  35.0464
 5.62925  35.6625
 5.70975  35.6134
 5.79025  36.1283
 5.87075  36.3169
 5.95125  38.1457
 6.03175  37.963
 6.11225  36.9159
 6.19275  37.3372
 6.27325  37.9792
 6.35375  38.1896
 6.43425  39.0311
 6.51475  39.5917
 6.59525  40.177
 6.67575  40.6476
 6.75625  41.1788
 6.83675  41.9642
 6.91725  42.4485
 6.99775  43.0747
 7.07825  43.1963
 7.15875  43.7392
 7.23925  44.0512
 7.31975  44.5881
 7.40025  44.7708
 7.48075  44.6309
 7.56125  44.8271
 7.64175  44.6242
 7.72225  44.9156
 7.80275  45.0438
 7.88325  44.5553
 7.96375  44.1292
 8.04425  44.2259
 8.12475  43.2871
 8.20525  42.6402
 8.28575  41.6215
 8.36625  40.7657
 8.44675  39.4119
 8.52725  37.8917
 8.60775  36.7907
 8.68825  35.5691
 8.76875  34.2817
 8.84925  33.2225
 8.92975  32.1665
 9.01025  31.2169
 9.09075  30.3255
 9.17125  29.227
 9.25175  28.18
 9.33225  27.6221
 9.41275  27.0774
 9.49325  26.8754
 9.57375  26.1083
 9.65425  25.8179
 9.73475  25.288
 9.81525  25.2129
 9.89575  24.7554
 9.97625  24.5151
 10.0567  24.3079
 10.1373  23.9972
 10.2178  23.9093
 10.2982  23.6725
 10.3788  23.4657
 10.4593  23.2919
 10.5397  23.2085
 10.6203  22.921
 10.7007  22.963
 10.7813  22.906
 10.8618  22.8346
 10.9422  22.8605
 11.0228  22.6918
 11.1033  22.5761
 11.1837  22.4025
 11.2643  22.4404
 11.3447  22.4521
 11.4253  22.6265
 11.5058  22.6027
 11.5862  25.0382
 11.6668  22.6925
 11.7473  22.2816
 11.8277  22.4137
 11.9083  22.4388
 11.9887  22.6842
 12.0693  22.6061
 12.1498  22.7131
 12.2302  22.2282
 12.3108  22.5276
 12.3913  22.5507
 12.4718  22.6358
 12.5523  22.6625
 12.6328  22.8318
 12.7133  22.8884
 12.7938  23.1142
 12.8742  23.4232
 12.9548  23.8398
 13.0353  24.1487
 13.1158  25.1972
 13.1963  25.8249
 13.2768  26.7485
 13.3573  27.7105
 13.4378  28.7482
 13.5183  29.5444
 13.5988  29.8614
 13.6793  29.7506
 13.7598  29.5594
 13.8403  29.1194
 13.9208  30.0786
 14.0013  29.455
 14.0818  27.4344
 14.1623  26.9637
 14.2428  26.7999
 14.3233  26.191
 14.4038  25.9855
 14.4843  25.7433
 14.5648  25.5659
 14.6453  25.4366
 14.7258  25.2084
 14.8063  25.0353
 14.8868  24.9695
 14.9673  24.7428
 15.0478  24.7702
 15.1283  24.7237
 15.2088  25.242
 15.2892  24.7167
 15.3698  24.6227
 15.4503  24.5962
 15.5308  24.5443
 15.6113  24.3702
 15.6918  24.5842
 15.7723  24.6207
 15.8528  24.6392
 15.9332  24.701
 16.0138  24.768
 16.0943  24.7547
 16.1748  24.8355
 16.2553  25.1548
 16.3358  24.9954
 16.4163  24.7103
 16.4967  24.5374
 16.5773  24.5742
 16.6578  24.4567
 16.7383  24.3509
 16.8188  24.3919
 16.8992  24.3285
 16.9798  24.1807
 17.0603  24.1494
 17.1408  24.1304
 17.2213  24.2014
 17.3017  24.0592
 17.3823  23.9276
 17.4628  23.8327
 17.5433  23.8187
 17.6238  23.7323
 17.7042  23.6535
 17.7847  23.7816
 17.8653  23.6241
 17.9458  23.6799
 18.0263  23.7771
 18.1068  23.9091
 18.1872  23.4925
 18.2678  23.3984
 18.3483  23.4495
 18.4288  23.3444
 18.5093  23.5501
 18.5897  23.4337
 18.6703  23.4235
 18.7508  23.4057
 18.8313  23.305
 18.9118  23.4971
 18.9922  23.359
 19.0727  23.411
 19.1533  23.491
 19.2338  23.394
 19.3143  23.5177
 19.3948  23.5282
 19.4752  23.445
 19.5558  23.5107
 19.6363  23.5551
 19.7168  24.1761
 19.7973  23.8587
 19.8777  24.0877
 19.9582  23.6097
 20.0388  23.4829
 20.1193  23.7343
 20.1998  23.5393
 20.2803  23.5592
 20.3607  23.5472
 20.4413  23.6928
 20.5218  23.5711
 20.6023  23.7826
 20.6828  23.8086
 20.7632  24.1684
 20.8438  23.6589
 20.9243  23.7696
 21.0048  23.7726
 21.0853  23.7634
 21.1658  23.6752
 21.2462  23.7281
 21.3268  23.8325
 21.4073  23.9992
 21.4878  23.8397
 21.5683  23.8759
 21.6487  23.9761
 21.7293  24.0511
 21.8098  23.879
 21.8903  24.1177
 21.9708  24.0989
 22.0512  24.2056
 22.1318  24.2603
 22.2123  24.2035
 22.2928  24.3396
 22.3733  24.3
 22.4538  24.3978
 22.5343  24.7056
 22.6148  24.7504
 22.6953  25.0237
 22.7758  25.0774
 22.8563  25.2875
 22.9367  25.7121
 22.9943  26.1302