File: test-data-xrd/xrd-map-34-ID-E/Data_0036.chi
F:\20151113_APS_34IDE\\Brian\Particle1\OCV\Data_0036.tif
2-Theta Angle (Degrees)
Intensity
       2000
 0.07475  0.0000000E+00
 0.15525  0.0000000E+00
 0.23575  0.0000000E+00
 0.31625  0.0000000E+00
 0.39675  0.0000000E+00
 0.47725  0.0000000E+00
 0.55775  0.0000000E+00
 0.63825  0.0000000E+00
 0.71875  0.0000000E+00
 0.79925  0.0000000E+00
 0.87975  0.0000000E+00
 0.96025  0.0000000E+00
 1.04075  0.0000000E+00
 1.12125  0.0000000E+00
 1.20175  0.0000000E+00
 1.28225  0.0000000E+00
 1.36275  0.0000000E+00
 1.44325  0.0000000E+00
 1.52375  0.0000000E+00
 1.60425  0.0000000E+00
 1.68475  0.0000000E+00
 1.76525  0.0000000E+00
 1.84575  0.0000000E+00
 1.92625  0.0000000E+00
 2.00675  0.0000000E+00
 2.08725  0.0000000E+00
 2.16775  0.0000000E+00
 2.24825  0.0000000E+00
 2.32875  0.0000000E+00
 2.40925  0.0000000E+00
 2.48975  0.0000000E+00
 2.57025  0.0000000E+00
 2.65075  0.0000000E+00
 2.73125  0.0000000E+00
 2.81175  0.0000000E+00
 2.89225  35.6254
 2.97275  33.8875
 3.05325  34.6606
 3.13375  34.8631
 3.21425  35.4123
 3.29475  33.8416
 3.37525  34.6079
 3.45575  33.7596
 3.53625  33.4513
 3.61675  33.3548
 3.69725  33.2575
 3.77775  32.9223
 3.85825  32.1829
 3.93875  32.3007
 4.01925  32.4894
 4.09975  31.9163
 4.18025  31.7456
 4.26075  31.9073
 4.34125  32.4532
 4.42175  31.7785
 4.50225  32.1961
 4.58275  32.2276
 4.66325  32.3388
 4.74375  32.4857
 4.82425  32.2585
 4.90475  32.5853
 4.98525  32.7927
 5.06575  33.2663
 5.14625  33.4433
 5.22675  33.6805
 5.30725  33.4839
 5.38775  34.295
 5.46825  34.5874
 5.54875  34.7476
 5.62925  35.0165
 5.70975  35.5316
 5.79025  35.6907
 5.87075  37.0789
 5.95125  57.55
 6.03175  47.0151
 6.11225  37.2902
 6.19275  37.0225
 6.27325  37.6111
 6.35375  38.0529
 6.43425  38.4489
 6.51475  39.2238
 6.59525  39.4183
 6.67575  40.2405
 6.75625  40.7949
 6.83675  41.2059
 6.91725  41.9207
 6.99775  42.6397
 7.07825  42.7459
 7.15875  42.8731
 7.23925  43.1988
 7.31975  43.6319
 7.40025  44.0547
 7.48075  43.9344
 7.56125  43.9454
 7.64175  44.1465
 7.72225  43.9041
 7.80275  44.0569
 7.88325  43.6062
 7.96375  43.5469
 8.04425  43.1877
 8.12475  42.2577
 8.20525  41.8194
 8.28575  40.7725
 8.36625  39.6936
 8.44675  38.8386
 8.52725  37.5822
 8.60775  36.2389
 8.68825  35.1973
 8.76875  33.9433
 8.84925  32.7902
 8.92975  31.7775
 9.01025  30.5287
 9.09075  29.6635
 9.17125  29.1532
 9.25175  28.0693
 9.33225  27.7496
 9.41275  27.0032
 9.49325  26.5927
 9.57375  25.9996
 9.65425  25.5542
 9.73475  25.2374
 9.81525  25.0102
 9.89575  24.6489
 9.97625  24.4233
 10.0567  24.0954
 10.1373  23.7272
 10.2178  23.6582
 10.2982  23.675
 10.3788  23.5537
 10.4593  23.3704
 10.5397  23.2934
 10.6203  23.2574
 10.7007  22.9492
 10.7813  22.9588
 10.8618  22.7936
 10.9422  22.7892
 11.0228  22.7456
 11.1033  22.5843
 11.1837  22.8039
 11.2643  22.6128
 11.3447  22.5172
 11.4253  23.1107
 11.5058  24.3064
 11.5862  40.0799
 11.6668  25.5438
 11.7473  23.0526
 11.8277  22.7856
 11.9083  22.7437
 11.9887  24.2426
 12.0693  26.3747
 12.1498  24.1015
 12.2302  22.8678
 12.3108  22.7303
 12.3913  22.6755
 12.4718  22.6921
 12.5523  22.8918
 12.6328  23.0039
 12.7133  22.9876
 12.7938  23.1325
 12.8742  23.4552
 12.9548  23.8698
 13.0353  24.3581
 13.1158  24.8773
 13.1963  25.5881
 13.2768  26.607
 13.3573  27.6853
 13.4378  28.7132
 13.5183  29.3867
 13.5988  29.7753
 13.6793  29.8464
 13.7598  29.8123
 13.8403  29.8993
 13.9208  37.7318
 14.0013  41.8208
 14.0818  28.6689
 14.1623  27.4405
 14.2428  26.9078
 14.3233  26.3636
 14.4038  26.1932
 14.4843  25.8652
 14.5648  25.7176
 14.6453  25.3257
 14.7258  25.3976
 14.8063  25.1896
 14.8868  24.993
 14.9673  24.9277
 15.0478  25.0804
 15.1283  25.7734
 15.2088  30.2412
 15.2892  25.1075
 15.3698  24.7691
 15.4503  24.6398
 15.5308  24.6346
 15.6113  24.5177
 15.6918  24.5831
 15.7723  24.6176
 15.8528  24.8012
 15.9332  24.7666
 16.0138  24.7703
 16.0943  24.9047
 16.1748  24.9958
 16.2553  27.0202
 16.3358  25.1608
 16.4163  24.9812
 16.4967  24.6969
 16.5773  24.688
 16.6578  24.6153
 16.7383  24.6371
 16.8188  24.3769
 16.8992  24.5046
 16.9798  24.4691
 17.0603  24.2931
 17.1408  24.2161
 17.2213  24.29
 17.3017  24.1734
 17.3823  23.9873
 17.4628  24.1252
 17.5433  23.9925
 17.6238  23.9442
 17.7042  23.9972
 17.7847  23.9064
 17.8653  24.0021
 17.9458  24.1055
 18.0263  26.0951
 18.1068  28.0574
 18.1872  24.5752
 18.2678  23.8946
 18.3483  23.7469
 18.4288  23.8489
 18.5093  23.637
 18.5897  23.8197
 18.6703  23.5458
 18.7508  23.6847
 18.8313  23.6194
 18.9118  23.5885
 18.9922  23.3694
 19.0727  23.5266
 19.1533  23.6958
 19.2338  23.743
 19.3143  23.6433
 19.3948  23.8375
 19.4752  23.7814
 19.5558  24.0469
 19.6363  24.4621
 19.7168  28.5475
 19.7973  27.0885
 19.8777  30.411
 19.9582  24.5058
 20.0388  23.9959
 20.1193  24.005
 20.1998  23.9386
 20.2803  23.8476
 20.3607  23.7376
 20.4413  23.8851
 20.5218  23.8674
 20.6023  24.0744
 20.6828  24.9557
 20.7632  27.667
 20.8438  24.9786
 20.9243  24.1586
 21.0048  24.0262
 21.0853  24.0989
 21.1658  23.9463
 21.2462  23.8999
 21.3268  24.0232
 21.4073  24.001
 21.4878  24.0322
 21.5683  24.1806
 21.6487  24.1798
 21.7293  24.206
 21.8098  24.3068
 21.8903  24.314
 21.9708  24.2848
 22.0512  24.3562
 22.1318  24.5188
 22.2123  24.4765
 22.2928  24.6145
 22.3733  24.5746
 22.4538  24.6471
 22.5343  24.7403
 22.6148  24.9743
 22.6953  25.1191
 22.7758  25.3964
 22.8563  25.5566
 22.9367  26.0614
 22.9943  26.5447