File: test-data-xrd/xrd-map-34-ID-E/Data_0040.chi
F:\20151113_APS_34IDE\\Brian\Particle1\OCV\Data_0040.tif
2-Theta Angle (Degrees)
Intensity
       2000
 0.07475  0.0000000E+00
 0.15525  0.0000000E+00
 0.23575  0.0000000E+00
 0.31625  0.0000000E+00
 0.39675  0.0000000E+00
 0.47725  0.0000000E+00
 0.55775  0.0000000E+00
 0.63825  0.0000000E+00
 0.71875  0.0000000E+00
 0.79925  0.0000000E+00
 0.87975  0.0000000E+00
 0.96025  0.0000000E+00
 1.04075  0.0000000E+00
 1.12125  0.0000000E+00
 1.20175  0.0000000E+00
 1.28225  0.0000000E+00
 1.36275  0.0000000E+00
 1.44325  0.0000000E+00
 1.52375  0.0000000E+00
 1.60425  0.0000000E+00
 1.68475  0.0000000E+00
 1.76525  0.0000000E+00
 1.84575  0.0000000E+00
 1.92625  0.0000000E+00
 2.00675  0.0000000E+00
 2.08725  0.0000000E+00
 2.16775  0.0000000E+00
 2.24825  0.0000000E+00
 2.32875  0.0000000E+00
 2.40925  0.0000000E+00
 2.48975  0.0000000E+00
 2.57025  0.0000000E+00
 2.65075  0.0000000E+00
 2.73125  0.0000000E+00
 2.81175  0.0000000E+00
 2.89225  33.1951
 2.97275  34.9344
 3.05325  35.1997
 3.13375  35.2236
 3.21425  34.6529
 3.29475  33.9971
 3.37525  34.4875
 3.45575  33.8473
 3.53625  32.5128
 3.61675  32.9574
 3.69725  32.9868
 3.77775  32.6229
 3.85825  32.1105
 3.93875  32.1673
 4.01925  31.8912
 4.09975  32.3311
 4.18025  31.8095
 4.26075  31.5609
 4.34125  31.4916
 4.42175  31.7878
 4.50225  31.9654
 4.58275  32.1182
 4.66325  32.6388
 4.74375  31.9599
 4.82425  31.9828
 4.90475  32.7842
 4.98525  32.7604
 5.06575  32.8907
 5.14625  33.4071
 5.22675  33.3374
 5.30725  33.8813
 5.38775  34.1723
 5.46825  34.4175
 5.54875  34.4172
 5.62925  34.628
 5.70975  35.0053
 5.79025  35.498
 5.87075  36.1429
 5.95125  45.6365
 6.03175  42.5067
 6.11225  36.6905
 6.19275  36.7727
 6.27325  37.1299
 6.35375  37.7616
 6.43425  38.1927
 6.51475  38.5601
 6.59525  39.084
 6.67575  39.8596
 6.75625  40.218
 6.83675  41.4461
 6.91725  41.3402
 6.99775  42.0669
 7.07825  42.3982
 7.15875  42.5646
 7.23925  43.1047
 7.31975  43.3402
 7.40025  43.4451
 7.48075  43.7969
 7.56125  43.9794
 7.64175  43.9582
 7.72225  43.8363
 7.80275  43.5121
 7.88325  43.7708
 7.96375  43.2555
 8.04425  42.9924
 8.12475  42.1135
 8.20525  41.5189
 8.28575  40.4238
 8.36625  39.519
 8.44675  38.6298
 8.52725  37.3189
 8.60775  36.0058
 8.68825  34.9634
 8.76875  33.607
 8.84925  32.5357
 8.92975  31.5385
 9.01025  30.497
 9.09075  29.6453
 9.17125  28.7173
 9.25175  27.9176
 9.33225  27.4264
 9.41275  26.8107
 9.49325  26.3503
 9.57375  25.8411
 9.65425  25.2948
 9.73475  25.0364
 9.81525  24.893
 9.89575  24.4274
 9.97625  24.1537
 10.0567  23.9859
 10.1373  23.7612
 10.2178  23.6805
 10.2982  23.3089
 10.3788  23.304
 10.4593  23.0361
 10.5397  23.1768
 10.6203  22.9563
 10.7007  22.8061
 10.7813  22.8552
 10.8618  22.6674
 10.9422  22.7062
 11.0228  22.4798
 11.1033  22.6162
 11.1837  22.3371
 11.2643  22.4174
 11.3447  22.6225
 11.4253  23.3889
 11.5058  24.2241
 11.5862  44.394
 11.6668  24.8716
 11.7473  22.6891
 11.8277  22.6197
 11.9083  22.5188
 11.9887  23.6862
 12.0693  27.6477
 12.1498  26.8217
 12.2302  22.7982
 12.3108  22.6109
 12.3913  22.5731
 12.4718  22.6628
 12.5523  22.7327
 12.6328  22.8932
 12.7133  22.9081
 12.7938  23.2787
 12.8742  23.1864
 12.9548  23.5646
 13.0353  24.1207
 13.1158  24.8334
 13.1963  25.6885
 13.2768  26.3633
 13.3573  27.4609
 13.4378  28.2631
 13.5183  29.2861
 13.5988  29.4033
 13.6793  29.4938
 13.7598  29.4294
 13.8403  29.4187
 13.9208  38.0867
 14.0013  34.7704
 14.0818  27.8215
 14.1623  27.0624
 14.2428  26.5699
 14.3233  26.0596
 14.4038  25.8879
 14.4843  25.5521
 14.5648  25.4336
 14.6453  25.2009
 14.7258  24.9537
 14.8063  24.9669
 14.8868  24.7978
 14.9673  24.8141
 15.0478  24.7654
 15.1283  25.2672
 15.2088  28.5708
 15.2892  24.7743
 15.3698  24.5852
 15.4503  24.4517
 15.5308  24.5022
 15.6113  24.3672
 15.6918  24.5265
 15.7723  24.3507
 15.8528  24.348
 15.9332  24.4876
 16.0138  24.4865
 16.0943  24.4845
 16.1748  24.608
 16.2553  25.4195
 16.3358  24.8435
 16.4163  24.6012
 16.4967  24.5823
 16.5773  24.585
 16.6578  24.525
 16.7383  24.3788
 16.8188  24.3934
 16.8992  24.294
 16.9798  24.1925
 17.0603  24.0811
 17.1408  24.0745
 17.2213  24.0512
 17.3017  23.9333
 17.3823  23.9382
 17.4628  23.9818
 17.5433  23.82
 17.6238  23.7587
 17.7042  23.7581
 17.7847  23.7056
 17.8653  23.7388
 17.9458  23.6835
 18.0263  24.3199
 18.1068  25.41
 18.1872  23.8446
 18.2678  23.5409
 18.3483  23.5028
 18.4288  23.5479
 18.5093  23.5732
 18.5897  23.5484
 18.6703  23.4151
 18.7508  23.3689
 18.8313  23.3772
 18.9118  23.286
 18.9922  23.548
 19.0727  23.4528
 19.1533  23.5615
 19.2338  23.4163
 19.3143  23.5103
 19.3948  23.7017
 19.4752  23.5791
 19.5558  23.6919
 19.6363  23.9351
 19.7168  26.1265
 19.7973  24.5244
 19.8777  26.0893
 19.9582  23.8209
 20.0388  23.6706
 20.1193  23.7962
 20.1998  23.6335
 20.2803  23.5995
 20.3607  23.7075
 20.4413  23.6981
 20.5218  23.6511
 20.6023  23.8686
 20.6828  24.2025
 20.7632  26.6831
 20.8438  24.4816
 20.9243  23.9246
 21.0048  23.8581
 21.0853  23.8751
 21.1658  23.7611
 21.2462  23.8501
 21.3268  23.8321
 21.4073  23.966
 21.4878  23.8943
 21.5683  24.0508
 21.6487  24.0387
 21.7293  24.0585
 21.8098  24.0829
 21.8903  24.0282
 21.9708  24.1468
 22.0512  24.1954
 22.1318  24.2722
 22.2123  24.2919
 22.2928  24.3861
 22.3733  24.5984
 22.4538  24.5719
 22.5343  24.608
 22.6148  24.8585
 22.6953  25.0578
 22.7758  25.2221
 22.8563  25.4062
 22.9367  25.9106
 22.9943  26.4289