File: test-data-xrd/xrd-map-34-ID-E/Data_0021.chi
F:\20151113_APS_34IDE\\Brian\Particle1\OCV\Data_0021.tif
2-Theta Angle (Degrees)
Intensity
       2000
 0.07475  0.0000000E+00
 0.15525  0.0000000E+00
 0.23575  0.0000000E+00
 0.31625  0.0000000E+00
 0.39675  0.0000000E+00
 0.47725  0.0000000E+00
 0.55775  0.0000000E+00
 0.63825  0.0000000E+00
 0.71875  0.0000000E+00
 0.79925  0.0000000E+00
 0.87975  0.0000000E+00
 0.96025  0.0000000E+00
 1.04075  0.0000000E+00
 1.12125  0.0000000E+00
 1.20175  0.0000000E+00
 1.28225  0.0000000E+00
 1.36275  0.0000000E+00
 1.44325  0.0000000E+00
 1.52375  0.0000000E+00
 1.60425  0.0000000E+00
 1.68475  0.0000000E+00
 1.76525  0.0000000E+00
 1.84575  0.0000000E+00
 1.92625  0.0000000E+00
 2.00675  0.0000000E+00
 2.08725  0.0000000E+00
 2.16775  0.0000000E+00
 2.24825  0.0000000E+00
 2.32875  0.0000000E+00
 2.40925  0.0000000E+00
 2.48975  0.0000000E+00
 2.57025  0.0000000E+00
 2.65075  0.0000000E+00
 2.73125  0.0000000E+00
 2.81175  0.0000000E+00
 2.89225  34.4888
 2.97275  36.6638
 3.05325  36.4866
 3.13375  35.9422
 3.21425  35.2701
 3.29475  34.8916
 3.37525  35.5354
 3.45575  34.4677
 3.53625  33.3881
 3.61675  33.4131
 3.69725  33.1057
 3.77775  33.345
 3.85825  32.5895
 3.93875  32.9851
 4.01925  32.7328
 4.09975  32.6767
 4.18025  32.2979
 4.26075  32.8365
 4.34125  32.6204
 4.42175  32.7231
 4.50225  32.7829
 4.58275  32.8981
 4.66325  33.0631
 4.74375  32.7989
 4.82425  32.5177
 4.90475  32.7653
 4.98525  32.8299
 5.06575  33.2172
 5.14625  33.7755
 5.22675  33.9437
 5.30725  34.0442
 5.38775  34.6521
 5.46825  34.5764
 5.54875  34.8327
 5.62925  35.1293
 5.70975  35.4841
 5.79025  35.5102
 5.87075  36.291
 5.95125  37.8486
 6.03175  37.4336
 6.11225  36.6814
 6.19275  37.2057
 6.27325  37.5572
 6.35375  38.3145
 6.43425  38.5527
 6.51475  38.9719
 6.59525  39.7494
 6.67575  40.1867
 6.75625  40.8375
 6.83675  41.4862
 6.91725  42.0584
 6.99775  42.4167
 7.07825  42.6315
 7.15875  42.916
 7.23925  43.7372
 7.31975  43.9639
 7.40025  44.2607
 7.48075  44.3824
 7.56125  44.3257
 7.64175  44.4781
 7.72225  44.5308
 7.80275  44.3916
 7.88325  43.8692
 7.96375  43.8158
 8.04425  43.3642
 8.12475  42.9746
 8.20525  42.3748
 8.28575  41.1142
 8.36625  40.145
 8.44675  38.9788
 8.52725  37.9883
 8.60775  36.5545
 8.68825  35.4131
 8.76875  34.3582
 8.84925  32.7426
 8.92975  31.7343
 9.01025  30.9302
 9.09075  30.0175
 9.17125  29.2597
 9.25175  28.3497
 9.33225  27.5637
 9.41275  27.0558
 9.49325  26.6529
 9.57375  26.1267
 9.65425  25.6619
 9.73475  25.6266
 9.81525  25.1144
 9.89575  24.8721
 9.97625  24.451
 10.0567  24.3124
 10.1373  23.9343
 10.2178  23.8067
 10.2982  23.6817
 10.3788  23.4853
 10.4593  23.4304
 10.5397  23.4128
 10.6203  23.242
 10.7007  23.0755
 10.7813  22.9745
 10.8618  22.8742
 10.9422  22.7182
 11.0228  22.546
 11.1033  22.5762
 11.1837  22.5067
 11.2643  22.3578
 11.3447  22.4558
 11.4253  22.836
 11.5058  22.7762
 11.5862  26.1725
 11.6668  24.377
 11.7473  22.5907
 11.8277  22.5685
 11.9083  22.3736
 11.9887  22.8798
 12.0693  22.9462
 12.1498  22.8834
 12.2302  22.5299
 12.3108  22.5737
 12.3913  22.5933
 12.4718  22.5679
 12.5523  22.5654
 12.6328  22.8999
 12.7133  22.9423
 12.7938  23.0726
 12.8742  23.3235
 12.9548  23.7775
 13.0353  24.1289
 13.1158  24.7975
 13.1963  25.8568
 13.2768  26.6424
 13.3573  27.5724
 13.4378  28.4352
 13.5183  29.3882
 13.5988  29.7976
 13.6793  29.7377
 13.7598  29.2709
 13.8403  28.9511
 13.9208  29.2489
 14.0013  28.7047
 14.0818  27.3695
 14.1623  27.0458
 14.2428  26.5016
 14.3233  26.1895
 14.4038  25.9551
 14.4843  25.6017
 14.5648  25.6149
 14.6453  25.3471
 14.7258  25.1205
 14.8063  24.9168
 14.8868  24.9561
 14.9673  24.8328
 15.0478  25.1244
 15.1283  25.4022
 15.2088  35.093
 15.2892  25.5379
 15.3698  24.8328
 15.4503  24.5709
 15.5308  24.7009
 15.6113  24.4918
 15.6918  24.5074
 15.7723  24.4479
 15.8528  24.6099
 15.9332  24.6456
 16.0138  24.5489
 16.0943  24.9753
 16.1748  24.8414
 16.2553  25.1614
 16.3358  24.8549
 16.4163  24.6596
 16.4967  24.5381
 16.5773  24.4964
 16.6578  24.4473
 16.7383  24.4369
 16.8188  24.3697
 16.8992  24.1708
 16.9798  24.1412
 17.0603  24.0896
 17.1408  24.1747
 17.2213  24.2686
 17.3017  23.9941
 17.3823  23.9926
 17.4628  23.95
 17.5433  23.7488
 17.6238  23.8589
 17.7042  23.7719
 17.7847  23.7249
 17.8653  23.6737
 17.9458  23.6347
 18.0263  23.9183
 18.1068  24.067
 18.1872  23.8388
 18.2678  23.5057
 18.3483  23.6182
 18.4288  23.5221
 18.5093  23.4619
 18.5897  23.5712
 18.6703  23.4058
 18.7508  23.4463
 18.8313  23.429
 18.9118  23.4336
 18.9922  23.2828
 19.0727  23.5202
 19.1533  23.5023
 19.2338  23.4695
 19.3143  23.5003
 19.3948  23.5603
 19.4752  23.5393
 19.5558  23.5567
 19.6363  23.6645
 19.7168  24.24
 19.7973  24.0182
 19.8777  24.2713
 19.9582  23.778
 20.0388  23.6175
 20.1193  23.5341
 20.1998  23.5127
 20.2803  23.6604
 20.3607  23.6365
 20.4413  23.7439
 20.5218  23.5818
 20.6023  23.7675
 20.6828  23.8673
 20.7632  25.1927
 20.8438  23.9565
 20.9243  23.7883
 21.0048  23.9106
 21.0853  23.7085
 21.1658  23.6853
 21.2462  23.8506
 21.3268  23.7965
 21.4073  23.7459
 21.4878  23.7771
 21.5683  23.9706
 21.6487  24.0834
 21.7293  24.0476
 21.8098  24.0687
 21.8903  24.1188
 21.9708  24.0821
 22.0512  24.1503
 22.1318  24.26
 22.2123  24.3078
 22.2928  24.3566
 22.3733  24.4799
 22.4538  24.5716
 22.5343  24.5605
 22.6148  24.8887
 22.6953  25.1147
 22.7758  25.1831
 22.8563  25.4191
 22.9367  25.8263
 22.9943  26.0985