File: test-data-xrd/xrd-map-34-ID-E/Data_0130.chi
F:\20151113_APS_34IDE\\Brian\Particle1\OCV\Data_0130.tif
2-Theta Angle (Degrees)
Intensity
       2000
 0.07475  0.0000000E+00
 0.15525  0.0000000E+00
 0.23575  0.0000000E+00
 0.31625  0.0000000E+00
 0.39675  0.0000000E+00
 0.47725  0.0000000E+00
 0.55775  0.0000000E+00
 0.63825  0.0000000E+00
 0.71875  0.0000000E+00
 0.79925  0.0000000E+00
 0.87975  0.0000000E+00
 0.96025  0.0000000E+00
 1.04075  0.0000000E+00
 1.12125  0.0000000E+00
 1.20175  0.0000000E+00
 1.28225  0.0000000E+00
 1.36275  0.0000000E+00
 1.44325  0.0000000E+00
 1.52375  0.0000000E+00
 1.60425  0.0000000E+00
 1.68475  0.0000000E+00
 1.76525  0.0000000E+00
 1.84575  0.0000000E+00
 1.92625  0.0000000E+00
 2.00675  0.0000000E+00
 2.08725  0.0000000E+00
 2.16775  0.0000000E+00
 2.24825  0.0000000E+00
 2.32875  0.0000000E+00
 2.40925  0.0000000E+00
 2.48975  0.0000000E+00
 2.57025  0.0000000E+00
 2.65075  0.0000000E+00
 2.73125  0.0000000E+00
 2.81175  0.0000000E+00
 2.89225  36.6853
 2.97275  35.8316
 3.05325  36.174
 3.13375  34.9765
 3.21425  34.8101
 3.29475  33.9244
 3.37525  35.1543
 3.45575  34.7783
 3.53625  34.4913
 3.61675  32.8984
 3.69725  32.8596
 3.77775  33.5096
 3.85825  33.1334
 3.93875  33.0514
 4.01925  32.9936
 4.09975  32.2904
 4.18025  32.0261
 4.26075  32.4206
 4.34125  32.2308
 4.42175  32.6254
 4.50225  32.6385
 4.58275  32.3311
 4.66325  32.8947
 4.74375  32.8598
 4.82425  32.3799
 4.90475  32.6286
 4.98525  32.7202
 5.06575  33.3088
 5.14625  33.857
 5.22675  33.8461
 5.30725  33.9521
 5.38775  34.3755
 5.46825  34.2249
 5.54875  34.9422
 5.62925  35.075
 5.70975  35.448
 5.79025  35.468
 5.87075  35.5075
 5.95125  36.4519
 6.03175  36.4567
 6.11225  36.1318
 6.19275  36.6351
 6.27325  37.2289
 6.35375  37.8211
 6.43425  38.2828
 6.51475  38.9319
 6.59525  39.4167
 6.67575  39.8393
 6.75625  40.6895
 6.83675  41.1362
 6.91725  41.6331
 6.99775  42.276
 7.07825  42.7409
 7.15875  43.2054
 7.23925  43.213
 7.31975  43.7011
 7.40025  43.8891
 7.48075  44.1018
 7.56125  44.3139
 7.64175  44.5219
 7.72225  43.9615
 7.80275  44.0586
 7.88325  44.0231
 7.96375  43.7159
 8.04425  43.0628
 8.12475  42.562
 8.20525  41.7267
 8.28575  40.6724
 8.36625  40.2527
 8.44675  38.654
 8.52725  37.4034
 8.60775  36.3094
 8.68825  35.1232
 8.76875  33.6508
 8.84925  32.6078
 8.92975  31.5552
 9.01025  30.3695
 9.09075  29.4129
 9.17125  28.7016
 9.25175  27.7738
 9.33225  27.28
 9.41275  26.5485
 9.49325  26.4236
 9.57375  25.6358
 9.65425  25.3622
 9.73475  24.9075
 9.81525  24.6619
 9.89575  24.4606
 9.97625  24.0907
 10.0567  24.0056
 10.1373  23.585
 10.2178  23.601
 10.2982  23.4662
 10.3788  23.117
 10.4593  22.9119
 10.5397  22.7627
 10.6203  22.8399
 10.7007  22.6833
 10.7813  22.5818
 10.8618  22.5201
 10.9422  22.4021
 11.0228  22.3893
 11.1033  22.2884
 11.1837  22.259
 11.2643  22.2454
 11.3447  22.2652
 11.4253  22.3665
 11.5058  22.3969
 11.5862  22.8535
 11.6668  22.2162
 11.7473  22.0348
 11.8277  22.1603
 11.9083  21.9689
 11.9887  22.2786
 12.0693  22.4605
 12.1498  22.3584
 12.2302  22.0086
 12.3108  22.2247
 12.3913  22.3776
 12.4718  22.2679
 12.5523  22.3071
 12.6328  22.4831
 12.7133  22.6964
 12.7938  22.8405
 12.8742  23.1099
 12.9548  23.5015
 13.0353  23.8114
 13.1158  24.5509
 13.1963  25.386
 13.2768  26.4604
 13.3573  27.3029
 13.4378  28.1406
 13.5183  28.9704
 13.5988  29.5087
 13.6793  29.4255
 13.7598  28.8047
 13.8403  28.5803
 13.9208  28.8617
 14.0013  28.2981
 14.0818  27.0904
 14.1623  26.5671
 14.2428  26.1167
 14.3233  25.6855
 14.4038  25.5692
 14.4843  25.3434
 14.5648  25.1941
 14.6453  25.0092
 14.7258  24.9116
 14.8063  24.7044
 14.8868  24.4914
 14.9673  24.4871
 15.0478  24.4095
 15.1283  24.3903
 15.2088  24.4389
 15.2892  24.2975
 15.3698  24.2521
 15.4503  24.2836
 15.5308  24.2297
 15.6113  24.3096
 15.6918  24.2605
 15.7723  24.3956
 15.8528  24.3631
 15.9332  24.2752
 16.0138  24.47
 16.0943  24.4091
 16.1748  24.5782
 16.2553  25.201
 16.3358  24.6865
 16.4163  24.4694
 16.4967  24.4546
 16.5773  24.3894
 16.6578  24.4131
 16.7383  24.268
 16.8188  24.1356
 16.8992  24.1503
 16.9798  23.9492
 17.0603  23.8957
 17.1408  23.7697
 17.2213  23.8228
 17.3017  23.7147
 17.3823  23.7819
 17.4628  23.6637
 17.5433  23.5446
 17.6238  23.5079
 17.7042  23.4995
 17.7847  23.5619
 17.8653  23.2008
 17.9458  23.3842
 18.0263  23.4531
 18.1068  23.5071
 18.1872  23.2306
 18.2678  23.3118
 18.3483  23.3184
 18.4288  23.2302
 18.5093  23.2586
 18.5897  23.2492
 18.6703  23.1895
 18.7508  23.1666
 18.8313  23.2839
 18.9118  23.1365
 18.9922  23.1957
 19.0727  23.1947
 19.1533  23.1628
 19.2338  23.1779
 19.3143  23.2415
 19.3948  23.1914
 19.4752  23.2661
 19.5558  23.1956
 19.6363  23.2737
 19.7168  23.5715
 19.7973  23.5089
 19.8777  23.7
 19.9582  23.2771
 20.0388  23.346
 20.1193  23.4275
 20.1998  23.2956
 20.2803  23.3431
 20.3607  23.3759
 20.4413  23.3453
 20.5218  23.3152
 20.6023  23.5089
 20.6828  23.404
 20.7632  23.8467
 20.8438  23.5276
 20.9243  23.5808
 21.0048  23.4935
 21.0853  23.5666
 21.1658  23.5422
 21.2462  23.6648
 21.3268  23.5353
 21.4073  23.5866
 21.4878  23.6726
 21.5683  23.6412
 21.6487  23.7478
 21.7293  23.7497
 21.8098  23.9032
 21.8903  23.8191
 21.9708  23.8199
 22.0512  23.8729
 22.1318  23.963
 22.2123  23.9075
 22.2928  24.1266
 22.3733  24.2254
 22.4538  24.2408
 22.5343  24.5042
 22.6148  24.6205
 22.6953  24.8651
 22.7758  24.9201
 22.8563  25.0936
 22.9367  25.4004
 22.9943  25.7024