File: test-data-xrd/xrd-map-34-ID-E/Data_0029.chi
F:\20151113_APS_34IDE\\Brian\Particle1\OCV\Data_0029.tif
2-Theta Angle (Degrees)
Intensity
       2000
 0.07475  0.0000000E+00
 0.15525  0.0000000E+00
 0.23575  0.0000000E+00
 0.31625  0.0000000E+00
 0.39675  0.0000000E+00
 0.47725  0.0000000E+00
 0.55775  0.0000000E+00
 0.63825  0.0000000E+00
 0.71875  0.0000000E+00
 0.79925  0.0000000E+00
 0.87975  0.0000000E+00
 0.96025  0.0000000E+00
 1.04075  0.0000000E+00
 1.12125  0.0000000E+00
 1.20175  0.0000000E+00
 1.28225  0.0000000E+00
 1.36275  0.0000000E+00
 1.44325  0.0000000E+00
 1.52375  0.0000000E+00
 1.60425  0.0000000E+00
 1.68475  0.0000000E+00
 1.76525  0.0000000E+00
 1.84575  0.0000000E+00
 1.92625  0.0000000E+00
 2.00675  0.0000000E+00
 2.08725  0.0000000E+00
 2.16775  0.0000000E+00
 2.24825  0.0000000E+00
 2.32875  0.0000000E+00
 2.40925  0.0000000E+00
 2.48975  0.0000000E+00
 2.57025  0.0000000E+00
 2.65075  0.0000000E+00
 2.73125  0.0000000E+00
 2.81175  0.0000000E+00
 2.89225  35.9445
 2.97275  35.4155
 3.05325  35.9473
 3.13375  36.8326
 3.21425  36.066
 3.29475  34.7461
 3.37525  34.24
 3.45575  34.5133
 3.53625  34.8125
 3.61675  33.5628
 3.69725  34.0087
 3.77775  33.5688
 3.85825  32.6258
 3.93875  33.3814
 4.01925  33.0914
 4.09975  32.9814
 4.18025  32.3776
 4.26075  32.635
 4.34125  32.681
 4.42175  32.1729
 4.50225  32.6936
 4.58275  32.6813
 4.66325  32.9896
 4.74375  33.0063
 4.82425  32.9238
 4.90475  33.0644
 4.98525  33.0804
 5.06575  33.508
 5.14625  34.1555
 5.22675  34.1625
 5.30725  34.5907
 5.38775  34.7909
 5.46825  34.8462
 5.54875  35.517
 5.62925  35.5721
 5.70975  36.1001
 5.79025  36.089
 5.87075  36.5435
 5.95125  41.3908
 6.03175  39.5624
 6.11225  37.1317
 6.19275  37.3713
 6.27325  37.823
 6.35375  38.2733
 6.43425  38.812
 6.51475  39.415
 6.59525  40.0336
 6.67575  40.3511
 6.75625  41.1194
 6.83675  41.695
 6.91725  42.2811
 6.99775  42.4533
 7.07825  42.9
 7.15875  43.4922
 7.23925  43.8356
 7.31975  44.2136
 7.40025  44.4607
 7.48075  44.5625
 7.56125  44.9121
 7.64175  44.7437
 7.72225  44.7217
 7.80275  44.6308
 7.88325  44.6581
 7.96375  44.0491
 8.04425  43.9664
 8.12475  42.7668
 8.20525  42.3302
 8.28575  41.2557
 8.36625  40.413
 8.44675  39.2298
 8.52725  37.9085
 8.60775  36.6774
 8.68825  35.6234
 8.76875  34.5711
 8.84925  33.0132
 8.92975  32.0694
 9.01025  31.0029
 9.09075  30.3698
 9.17125  29.4765
 9.25175  28.5595
 9.33225  27.8085
 9.41275  27.1135
 9.49325  26.8258
 9.57375  26.443
 9.65425  25.8028
 9.73475  25.787
 9.81525  25.2173
 9.89575  24.9528
 9.97625  25.8341
 10.0567  24.5433
 10.1373  24.302
 10.2178  24.0561
 10.2982  24.0101
 10.3788  23.6302
 10.4593  23.5805
 10.5397  23.4968
 10.6203  23.3625
 10.7007  23.12
 10.7813  23.0594
 10.8618  23.0003
 10.9422  22.8997
 11.0228  22.8282
 11.1033  22.8265
 11.1837  22.704
 11.2643  22.7807
 11.3447  22.8533
 11.4253  23.3736
 11.5058  23.3402
 11.5862  30.7279
 11.6668  23.994
 11.7473  23.0119
 11.8277  22.9598
 11.9083  22.973
 11.9887  24.0129
 12.0693  31.1268
 12.1498  27.6293
 12.2302  23.2379
 12.3108  22.9269
 12.3913  22.9801
 12.4718  22.9752
 12.5523  22.8855
 12.6328  23.0454
 12.7133  23.2724
 12.7938  23.161
 12.8742  23.6834
 12.9548  24.0759
 13.0353  24.3335
 13.1158  25.2094
 13.1963  25.9479
 13.2768  26.8746
 13.3573  27.7896
 13.4378  28.9077
 13.5183  29.7443
 13.5988  30.1021
 13.6793  30.3298
 13.7598  30.0631
 13.8403  30.4408
 13.9208  44.2831
 14.0013  37.2855
 14.0818  28.5227
 14.1623  27.5461
 14.2428  26.9
 14.3233  26.5657
 14.4038  26.1429
 14.4843  25.9165
 14.5648  25.8637
 14.6453  25.5735
 14.7258  25.5042
 14.8063  25.372
 14.8868  25.221
 14.9673  25.1148
 15.0478  25.2095
 15.1283  25.5983
 15.2088  28.6058
 15.2892  25.0417
 15.3698  24.8652
 15.4503  24.7286
 15.5308  24.7753
 15.6113  24.6801
 15.6918  24.8035
 15.7723  24.8246
 15.8528  24.8349
 15.9332  24.9126
 16.0138  24.7961
 16.0943  24.9598
 16.1748  25.0073
 16.2553  25.8899
 16.3358  25.3558
 16.4163  25.0614
 16.4967  24.9216
 16.5773  24.8198
 16.6578  24.9035
 16.7383  24.8986
 16.8188  24.5441
 16.8992  24.5813
 16.9798  24.614
 17.0603  24.3903
 17.1408  24.4021
 17.2213  24.5557
 17.3017  24.3735
 17.3823  24.2557
 17.4628  24.2213
 17.5433  24.1351
 17.6238  24.0236
 17.7042  24.0132
 17.7847  24.0572
 17.8653  23.9564
 17.9458  23.9229
 18.0263  24.8814
 18.1068  24.9533
 18.1872  24.0883
 18.2678  23.7865
 18.3483  23.8275
 18.4288  23.7551
 18.5093  23.753
 18.5897  23.75
 18.6703  23.7958
 18.7508  23.7526
 18.8313  23.8001
 18.9118  23.7398
 18.9922  23.5309
 19.0727  23.6734
 19.1533  23.7578
 19.2338  23.7198
 19.3143  23.8917
 19.3948  23.8531
 19.4752  23.8672
 19.5558  23.8404
 19.6363  24.1156
 19.7168  25.7427
 19.7973  24.655
 19.8777  26.2373
 19.9582  24.1386
 20.0388  23.8868
 20.1193  23.9308
 20.1998  23.9501
 20.2803  23.9146
 20.3607  23.871
 20.4413  23.936
 20.5218  23.9633
 20.6023  24.1506
 20.6828  24.4897
 20.7632  27.2928
 20.8438  24.5115
 20.9243  24.2706
 21.0048  24.0371
 21.0853  23.9926
 21.1658  23.9849
 21.2462  24.0684
 21.3268  24.2275
 21.4073  24.077
 21.4878  24.1273
 21.5683  23.9633
 21.6487  24.2523
 21.7293  24.2316
 21.8098  24.3531
 21.8903  24.3706
 21.9708  24.3567
 22.0512  24.4763
 22.1318  24.5025
 22.2123  24.5663
 22.2928  25.0055
 22.3733  24.7334
 22.4538  24.8193
 22.5343  25.033
 22.6148  25.3723
 22.6953  25.4024
 22.7758  25.671
 22.8563  25.9247
 22.9367  26.4961
 22.9943  28.8172