File: test-data-xrd/xrd-map-34-ID-E/Data_0038.chi
F:\20151113_APS_34IDE\\Brian\Particle1\OCV\Data_0038.tif
2-Theta Angle (Degrees)
Intensity
       2000
 0.07475  0.0000000E+00
 0.15525  0.0000000E+00
 0.23575  0.0000000E+00
 0.31625  0.0000000E+00
 0.39675  0.0000000E+00
 0.47725  0.0000000E+00
 0.55775  0.0000000E+00
 0.63825  0.0000000E+00
 0.71875  0.0000000E+00
 0.79925  0.0000000E+00
 0.87975  0.0000000E+00
 0.96025  0.0000000E+00
 1.04075  0.0000000E+00
 1.12125  0.0000000E+00
 1.20175  0.0000000E+00
 1.28225  0.0000000E+00
 1.36275  0.0000000E+00
 1.44325  0.0000000E+00
 1.52375  0.0000000E+00
 1.60425  0.0000000E+00
 1.68475  0.0000000E+00
 1.76525  0.0000000E+00
 1.84575  0.0000000E+00
 1.92625  0.0000000E+00
 2.00675  0.0000000E+00
 2.08725  0.0000000E+00
 2.16775  0.0000000E+00
 2.24825  0.0000000E+00
 2.32875  0.0000000E+00
 2.40925  0.0000000E+00
 2.48975  0.0000000E+00
 2.57025  0.0000000E+00
 2.65075  0.0000000E+00
 2.73125  0.0000000E+00
 2.81175  0.0000000E+00
 2.89225  33.7385
 2.97275  35.22
 3.05325  35.8091
 3.13375  35.33
 3.21425  36.1585
 3.29475  34.6249
 3.37525  33.4407
 3.45575  33.61
 3.53625  34.3689
 3.61675  33.472
 3.69725  32.5184
 3.77775  33.0607
 3.85825  32.3893
 3.93875  32.1351
 4.01925  32.7178
 4.09975  32.3234
 4.18025  31.9162
 4.26075  32.4499
 4.34125  32.1249
 4.42175  32.0167
 4.50225  32.6437
 4.58275  32.6109
 4.66325  32.6067
 4.74375  31.9976
 4.82425  32.3114
 4.90475  32.5524
 4.98525  32.7607
 5.06575  33.0523
 5.14625  33.2482
 5.22675  33.5199
 5.30725  33.7995
 5.38775  34.3947
 5.46825  34.3909
 5.54875  34.4387
 5.62925  35.3864
 5.70975  35.6146
 5.79025  36.2743
 5.87075  37.5862
 5.95125  62.02
 6.03175  54.7847
 6.11225  37.7683
 6.19275  37.6525
 6.27325  37.7008
 6.35375  37.9462
 6.43425  38.2527
 6.51475  38.9119
 6.59525  39.3233
 6.67575  40.0812
 6.75625  40.5535
 6.83675  41.0912
 6.91725  41.5731
 6.99775  42.2604
 7.07825  42.5025
 7.15875  42.7886
 7.23925  43.3437
 7.31975  43.4839
 7.40025  43.7812
 7.48075  43.8282
 7.56125  44.0499
 7.64175  44.1339
 7.72225  44.3644
 7.80275  43.7976
 7.88325  43.6794
 7.96375  43.2425
 8.04425  43.151
 8.12475  42.4325
 8.20525  41.734
 8.28575  40.9367
 8.36625  39.8317
 8.44675  38.6548
 8.52725  37.6133
 8.60775  36.162
 8.68825  34.9933
 8.76875  33.7791
 8.84925  32.9335
 8.92975  31.6061
 9.01025  30.6302
 9.09075  29.8931
 9.17125  29.2263
 9.25175  28.1364
 9.33225  27.7211
 9.41275  27.0872
 9.49325  26.5919
 9.57375  26.1563
 9.65425  25.7359
 9.73475  25.3682
 9.81525  25.0195
 9.89575  24.6028
 9.97625  24.5233
 10.0567  24.3742
 10.1373  23.9868
 10.2178  23.8429
 10.2982  23.8047
 10.3788  23.5989
 10.4593  23.5645
 10.5397  23.3483
 10.6203  23.132
 10.7007  23.1531
 10.7813  23.0101
 10.8618  22.9248
 10.9422  22.9062
 11.0228  22.7726
 11.1033  22.7631
 11.1837  22.6236
 11.2643  22.6188
 11.3447  22.7895
 11.4253  23.2399
 11.5058  23.7977
 11.5862  35.01
 11.6668  24.5765
 11.7473  22.9565
 11.8277  22.808
 11.9083  22.8267
 11.9887  24.6536
 12.0693  24.0761
 12.1498  24.1611
 12.2302  22.6453
 12.3108  22.6676
 12.3913  22.6913
 12.4718  22.8039
 12.5523  22.9221
 12.6328  22.957
 12.7133  23.1178
 12.7938  23.1177
 12.8742  23.6746
 12.9548  23.9229
 13.0353  24.3449
 13.1158  25.0159
 13.1963  25.6787
 13.2768  26.9079
 13.3573  27.7725
 13.4378  28.7362
 13.5183  29.4405
 13.5988  29.8903
 13.6793  29.9186
 13.7598  30.1002
 13.8403  31.0179
 13.9208  52.5104
 14.0013  53.4176
 14.0818  29.6008
 14.1623  27.7199
 14.2428  26.8988
 14.3233  26.6179
 14.4038  26.1883
 14.4843  25.9108
 14.5648  25.7214
 14.6453  25.5048
 14.7258  25.3794
 14.8063  25.2151
 14.8868  24.9202
 14.9673  24.9885
 15.0478  25.0982
 15.1283  25.7963
 15.2088  28.7197
 15.2892  25.1026
 15.3698  24.7925
 15.4503  24.6619
 15.5308  24.723
 15.6113  24.6966
 15.6918  24.6786
 15.7723  24.7719
 15.8528  24.771
 15.9332  24.786
 16.0138  24.8287
 16.0943  24.8491
 16.1748  24.8512
 16.2553  26.2243
 16.3358  25.0424
 16.4163  24.7061
 16.4967  24.7621
 16.5773  24.7633
 16.6578  24.7237
 16.7383  24.6526
 16.8188  24.4321
 16.8992  24.4503
 16.9798  24.337
 17.0603  24.2525
 17.1408  24.2869
 17.2213  24.2584
 17.3017  24.1671
 17.3823  24.1664
 17.4628  24.041
 17.5433  24.0478
 17.6238  24.0884
 17.7042  24.0739
 17.7847  24.0227
 17.8653  24.0046
 17.9458  24.1627
 18.0263  25.6666
 18.1068  28.2922
 18.1872  24.5752
 18.2678  23.8727
 18.3483  23.8212
 18.4288  23.7391
 18.5093  23.7533
 18.5897  23.7819
 18.6703  23.5939
 18.7508  23.6722
 18.8313  23.6163
 18.9118  23.7245
 18.9922  23.5401
 19.0727  23.5758
 19.1533  23.6262
 19.2338  23.5514
 19.3143  23.7098
 19.3948  23.7386
 19.4752  23.9415
 19.5558  23.9719
 19.6363  24.7108
 19.7168  30.3148
 19.7973  26.3006
 19.8777  27.5954
 19.9582  24.3502
 20.0388  24.0451
 20.1193  23.9937
 20.1998  23.9251
 20.2803  23.9134
 20.3607  23.9948
 20.4413  23.8882
 20.5218  23.9448
 20.6023  24.0422
 20.6828  24.7662
 20.7632  29.1122
 20.8438  24.8121
 20.9243  24.3284
 21.0048  24.0853
 21.0853  24.1215
 21.1658  24.0894
 21.2462  24.0996
 21.3268  24.0903
 21.4073  24.1366
 21.4878  24.1059
 21.5683  24.2302
 21.6487  24.2142
 21.7293  24.3377
 21.8098  24.453
 21.8903  24.3796
 21.9708  24.3956
 22.0512  24.4414
 22.1318  24.608
 22.2123  24.5176
 22.2928  24.7256
 22.3733  24.7033
 22.4538  24.7951
 22.5343  24.9756
 22.6148  25.191
 22.6953  25.3904
 22.7758  25.3812
 22.8563  25.7298
 22.9367  26.0378
 22.9943  26.4128