File: test-data-xrd/xrd-map-34-ID-E/Data_0033.chi
F:\20151113_APS_34IDE\\Brian\Particle1\OCV\Data_0033.tif
2-Theta Angle (Degrees)
Intensity
       2000
 0.07475  0.0000000E+00
 0.15525  0.0000000E+00
 0.23575  0.0000000E+00
 0.31625  0.0000000E+00
 0.39675  0.0000000E+00
 0.47725  0.0000000E+00
 0.55775  0.0000000E+00
 0.63825  0.0000000E+00
 0.71875  0.0000000E+00
 0.79925  0.0000000E+00
 0.87975  0.0000000E+00
 0.96025  0.0000000E+00
 1.04075  0.0000000E+00
 1.12125  0.0000000E+00
 1.20175  0.0000000E+00
 1.28225  0.0000000E+00
 1.36275  0.0000000E+00
 1.44325  0.0000000E+00
 1.52375  0.0000000E+00
 1.60425  0.0000000E+00
 1.68475  0.0000000E+00
 1.76525  0.0000000E+00
 1.84575  0.0000000E+00
 1.92625  0.0000000E+00
 2.00675  0.0000000E+00
 2.08725  0.0000000E+00
 2.16775  0.0000000E+00
 2.24825  0.0000000E+00
 2.32875  0.0000000E+00
 2.40925  0.0000000E+00
 2.48975  0.0000000E+00
 2.57025  0.0000000E+00
 2.65075  0.0000000E+00
 2.73125  0.0000000E+00
 2.81175  0.0000000E+00
 2.89225  36.4786
 2.97275  35.6123
 3.05325  36.093
 3.13375  35.8982
 3.21425  35.6197
 3.29475  34.9524
 3.37525  34.5952
 3.45575  34.1978
 3.53625  35.0134
 3.61675  33.9129
 3.69725  33.5224
 3.77775  33.2287
 3.85825  32.9068
 3.93875  32.7531
 4.01925  33.4422
 4.09975  32.486
 4.18025  32.84
 4.26075  32.436
 4.34125  32.4443
 4.42175  32.5493
 4.50225  33.0731
 4.58275  32.3131
 4.66325  33.2476
 4.74375  32.8047
 4.82425  32.7761
 4.90475  33.152
 4.98525  33.1049
 5.06575  33.7058
 5.14625  33.8773
 5.22675  33.9933
 5.30725  34.4767
 5.38775  34.6925
 5.46825  34.9605
 5.54875  34.8787
 5.62925  35.4162
 5.70975  35.6689
 5.79025  36.2932
 5.87075  37.1301
 5.95125  53.2714
 6.03175  43.3183
 6.11225  38.0548
 6.19275  37.9751
 6.27325  38.0899
 6.35375  38.6651
 6.43425  38.9029
 6.51475  39.1871
 6.59525  39.7472
 6.67575  40.5434
 6.75625  40.8929
 6.83675  41.5441
 6.91725  42.3446
 6.99775  42.6276
 7.07825  42.5939
 7.15875  43.3008
 7.23925  43.9438
 7.31975  43.9658
 7.40025  44.6339
 7.48075  44.661
 7.56125  44.5076
 7.64175  44.7198
 7.72225  44.5067
 7.80275  44.6112
 7.88325  44.4235
 7.96375  43.8742
 8.04425  43.5913
 8.12475  43.0248
 8.20525  42.323
 8.28575  41.1685
 8.36625  40.1759
 8.44675  39.0443
 8.52725  37.8627
 8.60775  36.2409
 8.68825  35.3989
 8.76875  34.1665
 8.84925  33.0763
 8.92975  31.5481
 9.01025  30.831
 9.09075  29.6858
 9.17125  28.8766
 9.25175  28.3808
 9.33225  27.6241
 9.41275  26.9902
 9.49325  26.4503
 9.57375  26.0794
 9.65425  25.6568
 9.73475  25.2216
 9.81525  25.0802
 9.89575  24.7194
 9.97625  24.2905
 10.0567  24.038
 10.1373  24.0967
 10.2178  23.6234
 10.2982  23.5338
 10.3788  23.3089
 10.4593  23.2209
 10.5397  23.2531
 10.6203  23.0356
 10.7007  22.9273
 10.7813  22.7296
 10.8618  22.6611
 10.9422  22.646
 11.0228  22.6442
 11.1033  22.5565
 11.1837  22.4423
 11.2643  22.3337
 11.3447  22.498
 11.4253  22.6603
 11.5058  22.784
 11.5862  27.3933
 11.6668  23.2348
 11.7473  22.5766
 11.8277  22.4865
 11.9083  22.4085
 11.9887  22.8352
 12.0693  23.2248
 12.1498  23.2264
 12.2302  22.5442
 12.3108  22.4833
 12.3913  22.5229
 12.4718  22.6307
 12.5523  22.6862
 12.6328  22.8337
 12.7133  22.8508
 12.7938  23.0145
 12.8742  23.5033
 12.9548  23.7752
 13.0353  24.0102
 13.1158  24.883
 13.1963  25.659
 13.2768  26.622
 13.3573  27.6466
 13.4378  28.5547
 13.5183  29.4047
 13.5988  29.8462
 13.6793  29.6352
 13.7598  29.3457
 13.8403  28.9378
 13.9208  29.0051
 14.0013  28.2675
 14.0818  27.3201
 14.1623  26.8921
 14.2428  26.5001
 14.3233  26.2309
 14.4038  25.9677
 14.4843  25.6513
 14.5648  25.5125
 14.6453  25.266
 14.7258  25.1197
 14.8063  25.1746
 14.8868  24.8047
 14.9673  24.7427
 15.0478  24.6568
 15.1283  25.0235
 15.2088  25.834
 15.2892  24.685
 15.3698  24.5118
 15.4503  24.4311
 15.5308  24.4163
 15.6113  24.4402
 15.6918  24.5297
 15.7723  24.4122
 15.8528  24.5284
 15.9332  24.7592
 16.0138  24.7324
 16.0943  24.5104
 16.1748  24.7798
 16.2553  24.96
 16.3358  24.8328
 16.4163  24.7623
 16.4967  24.6145
 16.5773  24.6529
 16.6578  24.5223
 16.7383  24.2777
 16.8188  24.4029
 16.8992  24.3495
 16.9798  24.2454
 17.0603  24.0031
 17.1408  24.3248
 17.2213  24.1007
 17.3017  24.0233
 17.3823  23.9899
 17.4628  23.9705
 17.5433  23.8532
 17.6238  23.9147
 17.7042  23.8223
 17.7847  23.7287
 17.8653  23.8339
 17.9458  23.6823
 18.0263  23.9218
 18.1068  24.064
 18.1872  23.6489
 18.2678  23.4803
 18.3483  23.5348
 18.4288  23.6232
 18.5093  23.5186
 18.5897  23.4965
 18.6703  23.3558
 18.7508  23.4055
 18.8313  23.3093
 18.9118  23.4306
 18.9922  23.454
 19.0727  23.4938
 19.1533  23.4757
 19.2338  23.5198
 19.3143  23.5069
 19.3948  23.5427
 19.4752  23.5074
 19.5558  23.5486
 19.6363  23.693
 19.7168  24.2924
 19.7973  23.9796
 19.8777  24.0957
 19.9582  23.5762
 20.0388  23.6393
 20.1193  23.664
 20.1998  23.5545
 20.2803  23.6838
 20.3607  23.5213
 20.4413  23.7037
 20.5218  23.5859
 20.6023  23.8024
 20.6828  23.6831
 20.7632  23.9449
 20.8438  23.8357
 20.9243  23.8046
 21.0048  23.8057
 21.0853  23.7874
 21.1658  23.8238
 21.2462  23.7811
 21.3268  23.8487
 21.4073  23.7977
 21.4878  23.9183
 21.5683  23.8607
 21.6487  23.9714
 21.7293  23.993
 21.8098  24.0444
 21.8903  24.0644
 21.9708  24.2831
 22.0512  24.104
 22.1318  24.2801
 22.2123  24.3035
 22.2928  24.4202
 22.3733  24.4833
 22.4538  24.5688
 22.5343  24.7281
 22.6148  24.8779
 22.6953  25.0062
 22.7758  25.1351
 22.8563  25.3425
 22.9367  25.8349
 22.9943  26.1825