File: test-data-xrd/xrd-map-34-ID-E/Data_0102.chi
F:\20151113_APS_34IDE\\Brian\Particle1\OCV\Data_0102.tif
2-Theta Angle (Degrees)
Intensity
       2000
 0.07475  0.0000000E+00
 0.15525  0.0000000E+00
 0.23575  0.0000000E+00
 0.31625  0.0000000E+00
 0.39675  0.0000000E+00
 0.47725  0.0000000E+00
 0.55775  0.0000000E+00
 0.63825  0.0000000E+00
 0.71875  0.0000000E+00
 0.79925  0.0000000E+00
 0.87975  0.0000000E+00
 0.96025  0.0000000E+00
 1.04075  0.0000000E+00
 1.12125  0.0000000E+00
 1.20175  0.0000000E+00
 1.28225  0.0000000E+00
 1.36275  0.0000000E+00
 1.44325  0.0000000E+00
 1.52375  0.0000000E+00
 1.60425  0.0000000E+00
 1.68475  0.0000000E+00
 1.76525  0.0000000E+00
 1.84575  0.0000000E+00
 1.92625  0.0000000E+00
 2.00675  0.0000000E+00
 2.08725  0.0000000E+00
 2.16775  0.0000000E+00
 2.24825  0.0000000E+00
 2.32875  0.0000000E+00
 2.40925  0.0000000E+00
 2.48975  0.0000000E+00
 2.57025  0.0000000E+00
 2.65075  0.0000000E+00
 2.73125  0.0000000E+00
 2.81175  0.0000000E+00
 2.89225  35.0928
 2.97275  36.2404
 3.05325  36.3592
 3.13375  35.242
 3.21425  35.6463
 3.29475  36.2324
 3.37525  34.5713
 3.45575  35.7429
 3.53625  34.5845
 3.61675  33.5017
 3.69725  33.2961
 3.77775  33.3802
 3.85825  33.5116
 3.93875  32.6185
 4.01925  32.8941
 4.09975  32.5828
 4.18025  32.5019
 4.26075  32.4914
 4.34125  32.879
 4.42175  32.6519
 4.50225  32.3781
 4.58275  32.8765
 4.66325  32.6458
 4.74375  32.9436
 4.82425  32.7388
 4.90475  33.1078
 4.98525  33.1698
 5.06575  33.8817
 5.14625  33.6534
 5.22675  34.2259
 5.30725  34.4727
 5.38775  34.419
 5.46825  35.1197
 5.54875  35.2403
 5.62925  35.2398
 5.70975  35.8762
 5.79025  36.1982
 5.87075  36.6261
 5.95125  44.3267
 6.03175  41.1393
 6.11225  37.0818
 6.19275  37.447
 6.27325  37.7411
 6.35375  38.2322
 6.43425  38.8609
 6.51475  39.6699
 6.59525  39.9791
 6.67575  40.8417
 6.75625  41.3468
 6.83675  41.3991
 6.91725  42.2591
 6.99775  42.9611
 7.07825  43.5079
 7.15875  43.6477
 7.23925  43.8288
 7.31975  44.2363
 7.40025  44.3507
 7.48075  44.309
 7.56125  44.6274
 7.64175  44.3767
 7.72225  44.7717
 7.80275  44.3254
 7.88325  44.0304
 7.96375  44.0653
 8.04425  43.5288
 8.12475  42.7393
 8.20525  41.7764
 8.28575  41.0189
 8.36625  40.29
 8.44675  38.9254
 8.52725  37.8865
 8.60775  36.4548
 8.68825  35.1117
 8.76875  33.8223
 8.84925  33.0346
 8.92975  31.7835
 9.01025  30.6694
 9.09075  29.5932
 9.17125  28.8369
 9.25175  28.2244
 9.33225  27.4213
 9.41275  26.9953
 9.49325  26.2696
 9.57375  26.159
 9.65425  25.4957
 9.73475  25.1612
 9.81525  24.9343
 9.89575  24.5189
 9.97625  24.3905
 10.0567  24.245
 10.1373  23.9842
 10.2178  23.7008
 10.2982  23.6829
 10.3788  23.411
 10.4593  23.3129
 10.5397  23.2665
 10.6203  23.1147
 10.7007  23.0706
 10.7813  22.8196
 10.8618  22.8332
 10.9422  22.7985
 11.0228  22.7344
 11.1033  22.6546
 11.1837  22.4933
 11.2643  22.4275
 11.3447  22.5864
 11.4253  22.8626
 11.5058  23.322
 11.5862  33.1518
 11.6668  25.2127
 11.7473  22.8515
 11.8277  22.537
 11.9083  22.454
 11.9887  22.9947
 12.0693  23.4847
 12.1498  23.3375
 12.2302  22.5574
 12.3108  22.5176
 12.3913  22.6302
 12.4718  22.5716
 12.5523  22.7297
 12.6328  22.7812
 12.7133  22.8682
 12.7938  23.1455
 12.8742  23.3785
 12.9548  23.8184
 13.0353  24.1625
 13.1158  24.904
 13.1963  25.7996
 13.2768  26.6735
 13.3573  27.6295
 13.4378  28.6806
 13.5183  29.5459
 13.5988  29.8824
 13.6793  29.7525
 13.7598  29.6661
 13.8403  29.5739
 13.9208  33.8984
 14.0013  33.8145
 14.0818  28.1007
 14.1623  27.2214
 14.2428  26.6951
 14.3233  26.3762
 14.4038  25.9973
 14.4843  25.7368
 14.5648  25.6345
 14.6453  25.2189
 14.7258  25.2394
 14.8063  25.1495
 14.8868  25.0804
 14.9673  24.9603
 15.0478  24.8729
 15.1283  25.1496
 15.2088  26.5726
 15.2892  24.8032
 15.3698  24.7203
 15.4503  24.5812
 15.5308  24.6711
 15.6113  24.4235
 15.6918  24.6808
 15.7723  24.675
 15.8528  24.7099
 15.9332  24.5391
 16.0138  24.6836
 16.0943  24.7368
 16.1748  25.0887
 16.2553  27.1947
 16.3358  25.1441
 16.4163  24.9355
 16.4967  24.6473
 16.5773  24.65
 16.6578  24.6368
 16.7383  24.5097
 16.8188  24.4252
 16.8992  24.2795
 16.9798  24.343
 17.0603  24.3327
 17.1408  24.2699
 17.2213  24.2422
 17.3017  24.208
 17.3823  24.0616
 17.4628  24.0759
 17.5433  23.9818
 17.6238  24.1029
 17.7042  23.9179
 17.7847  23.9279
 17.8653  23.9612
 17.9458  24.1563
 18.0263  25.7448
 18.1068  34.2979
 18.1872  25.5103
 18.2678  23.9039
 18.3483  23.8271
 18.4288  23.6482
 18.5093  23.6625
 18.5897  23.5398
 18.6703  23.4274
 18.7508  23.5912
 18.8313  23.6021
 18.9118  23.5216
 18.9922  23.5317
 19.0727  23.6944
 19.1533  23.6153
 19.2338  23.4811
 19.3143  23.5851
 19.3948  23.6135
 19.4752  23.744
 19.5558  23.7424
 19.6363  24.141
 19.7168  27.9887
 19.7973  25.9774
 19.8777  28.5988
 19.9582  24.3666
 20.0388  23.7352
 20.1193  23.8838
 20.1998  23.7276
 20.2803  23.8145
 20.3607  23.7859
 20.4413  23.9134
 20.5218  23.7444
 20.6023  24.1253
 20.6828  24.7873
 20.7632  31.7582
 20.8438  24.8069
 20.9243  24.2078
 21.0048  24.0721
 21.0853  23.9765
 21.1658  23.8641
 21.2462  23.8902
 21.3268  23.8886
 21.4073  23.9491
 21.4878  23.918
 21.5683  23.9667
 21.6487  24.0367
 21.7293  24.1668
 21.8098  24.0513
 21.8903  24.1824
 21.9708  24.2693
 22.0512  24.3105
 22.1318  24.3983
 22.2123  24.2725
 22.2928  24.5174
 22.3733  24.4706
 22.4538  24.6584
 22.5343  24.8361
 22.6148  24.904
 22.6953  25.177
 22.7758  25.2721
 22.8563  25.574
 22.9367  26.0224
 22.9943  26.4808