File: test-data-xrd/xrd-map-34-ID-E/Data_0004.chi
F:\20151113_APS_34IDE\\Brian\Particle1\OCV\Data_0004.tif
2-Theta Angle (Degrees)
Intensity
       2000
 0.07475  0.0000000E+00
 0.15525  0.0000000E+00
 0.23575  0.0000000E+00
 0.31625  0.0000000E+00
 0.39675  0.0000000E+00
 0.47725  0.0000000E+00
 0.55775  0.0000000E+00
 0.63825  0.0000000E+00
 0.71875  0.0000000E+00
 0.79925  0.0000000E+00
 0.87975  0.0000000E+00
 0.96025  0.0000000E+00
 1.04075  0.0000000E+00
 1.12125  0.0000000E+00
 1.20175  0.0000000E+00
 1.28225  0.0000000E+00
 1.36275  0.0000000E+00
 1.44325  0.0000000E+00
 1.52375  0.0000000E+00
 1.60425  0.0000000E+00
 1.68475  0.0000000E+00
 1.76525  0.0000000E+00
 1.84575  0.0000000E+00
 1.92625  0.0000000E+00
 2.00675  0.0000000E+00
 2.08725  0.0000000E+00
 2.16775  0.0000000E+00
 2.24825  0.0000000E+00
 2.32875  0.0000000E+00
 2.40925  0.0000000E+00
 2.48975  0.0000000E+00
 2.57025  0.0000000E+00
 2.65075  0.0000000E+00
 2.73125  0.0000000E+00
 2.81175  0.0000000E+00
 2.89225  35.1624
 2.97275  35.8994
 3.05325  37.7923
 3.13375  35.1743
 3.21425  35.8427
 3.29475  34.8533
 3.37525  34.6864
 3.45575  34.5279
 3.53625  34.644
 3.61675  33.6061
 3.69725  33.3357
 3.77775  33.5875
 3.85825  32.8742
 3.93875  33.0056
 4.01925  32.7894
 4.09975  32.5128
 4.18025  32.6213
 4.26075  32.1256
 4.34125  32.759
 4.42175  32.2671
 4.50225  32.8626
 4.58275  33.0136
 4.66325  33.4321
 4.74375  32.8988
 4.82425  32.8683
 4.90475  33.7202
 4.98525  33.458
 5.06575  33.5259
 5.14625  33.9865
 5.22675  34.2621
 5.30725  34.47
 5.38775  34.8363
 5.46825  35.1503
 5.54875  35.1594
 5.62925  35.5777
 5.70975  35.6144
 5.79025  36.005
 5.87075  36.2068
 5.95125  40.9161
 6.03175  39.26
 6.11225  36.9717
 6.19275  37.2188
 6.27325  37.612
 6.35375  38.0394
 6.43425  38.8762
 6.51475  39.5768
 6.59525  40.108
 6.67575  40.599
 6.75625  41.1699
 6.83675  41.8498
 6.91725  42.364
 6.99775  42.7306
 7.07825  43.3939
 7.15875  43.5991
 7.23925  44.1776
 7.31975  44.3556
 7.40025  44.814
 7.48075  44.8787
 7.56125  45.0459
 7.64175  44.94
 7.72225  44.9212
 7.80275  44.8876
 7.88325  44.8956
 7.96375  44.5806
 8.04425  44.1447
 8.12475  43.692
 8.20525  42.959
 8.28575  42.1229
 8.36625  40.881
 8.44675  39.6056
 8.52725  38.3251
 8.60775  37.1122
 8.68825  36.0391
 8.76875  34.6925
 8.84925  33.5493
 8.92975  32.6956
 9.01025  31.3812
 9.09075  30.6228
 9.17125  29.6109
 9.25175  29.0807
 9.33225  28.2163
 9.41275  27.8216
 9.49325  27.1347
 9.57375  26.667
 9.65425  26.2628
 9.73475  25.9644
 9.81525  25.6015
 9.89575  25.3242
 9.97625  25.191
 10.0567  24.8387
 10.1373  24.4774
 10.2178  24.1962
 10.2982  24.0892
 10.3788  23.8646
 10.4593  23.8683
 10.5397  23.8205
 10.6203  23.5782
 10.7007  23.547
 10.7813  23.2318
 10.8618  23.1624
 10.9422  22.9068
 11.0228  22.8822
 11.1033  23.0429
 11.1837  22.958
 11.2643  22.8351
 11.3447  22.7748
 11.4253  23.1528
 11.5058  23.1046
 11.5862  25.203
 11.6668  23.3038
 11.7473  22.8537
 11.8277  22.7208
 11.9083  22.8268
 11.9887  23.0899
 12.0693  23.5586
 12.1498  23.5402
 12.2302  22.8739
 12.3108  23.0019
 12.3913  22.8601
 12.4718  23.0101
 12.5523  22.9333
 12.6328  23.0395
 12.7133  23.4908
 12.7938  23.5568
 12.8742  23.8007
 12.9548  24.1796
 13.0353  24.7953
 13.1158  25.1763
 13.1963  25.9874
 13.2768  27.0973
 13.3573  28.1577
 13.4378  28.914
 13.5183  29.7761
 13.5988  30.093
 13.6793  30.2231
 13.7598  29.8066
 13.8403  29.5154
 13.9208  31.4002
 14.0013  30.1628
 14.0818  27.8386
 14.1623  27.3463
 14.2428  26.8966
 14.3233  26.5689
 14.4038  26.3622
 14.4843  26.0881
 14.5648  25.7783
 14.6453  25.5159
 14.7258  25.6327
 14.8063  25.4105
 14.8868  25.3252
 14.9673  25.3579
 15.0478  25.198
 15.1283  25.1011
 15.2088  25.8076
 15.2892  24.94
 15.3698  24.6816
 15.4503  24.8949
 15.5308  24.8204
 15.6113  24.7752
 15.6918  24.9433
 15.7723  24.9124
 15.8528  24.7995
 15.9332  24.9823
 16.0138  24.9626
 16.0943  25.1534
 16.1748  25.1733
 16.2553  26.8573
 16.3358  25.3989
 16.4163  24.9336
 16.4967  24.9447
 16.5773  24.9482
 16.6578  24.8681
 16.7383  24.8448
 16.8188  24.7419
 16.8992  24.714
 16.9798  24.5981
 17.0603  24.4031
 17.1408  24.5554
 17.2213  24.6465
 17.3017  24.4496
 17.3823  24.2126
 17.4628  24.3604
 17.5433  24.1912
 17.6238  24.0806
 17.7042  23.9949
 17.7847  23.9412
 17.8653  23.9612
 17.9458  24.0625
 18.0263  24.2184
 18.1068  25.3466
 18.1872  24.0081
 18.2678  23.7657
 18.3483  23.9673
 18.4288  23.9322
 18.5093  23.7422
 18.5897  24.0818
 18.6703  23.9323
 18.7508  23.9042
 18.8313  23.8349
 18.9118  23.709
 18.9922  23.705
 19.0727  23.8172
 19.1533  23.7249
 19.2338  23.7535
 19.3143  23.8267
 19.3948  23.8976
 19.4752  23.9138
 19.5558  23.9562
 19.6363  24.0837
 19.7168  25.1853
 19.7973  24.6953
 19.8777  25.2986
 19.9582  24.136
 20.0388  24.0077
 20.1193  23.9694
 20.1998  23.9885
 20.2803  23.9854
 20.3607  23.938
 20.4413  24.0756
 20.5218  23.8796
 20.6023  23.9885
 20.6828  24.2369
 20.7632  24.9503
 20.8438  24.2235
 20.9243  24.2124
 21.0048  24.1484
 21.0853  24.0955
 21.1658  24.0269
 21.2462  24.1343
 21.3268  24.2124
 21.4073  24.238
 21.4878  24.1516
 21.5683  24.2154
 21.6487  24.3681
 21.7293  24.3202
 21.8098  24.3524
 21.8903  24.5259
 21.9708  24.5157
 22.0512  24.5291
 22.1318  24.6441
 22.2123  24.6344
 22.2928  24.8056
 22.3733  24.8876
 22.4538  24.9113
 22.5343  25.1041
 22.6148  25.1604
 22.6953  25.2249
 22.7758  25.4735
 22.8563  25.7775
 22.9367  26.1811
 22.9943  26.5632