File: test-data-xrd/xrd-map-34-ID-E/Data_0035.chi
F:\20151113_APS_34IDE\\Brian\Particle1\OCV\Data_0035.tif
2-Theta Angle (Degrees)
Intensity
       2000
 0.07475  0.0000000E+00
 0.15525  0.0000000E+00
 0.23575  0.0000000E+00
 0.31625  0.0000000E+00
 0.39675  0.0000000E+00
 0.47725  0.0000000E+00
 0.55775  0.0000000E+00
 0.63825  0.0000000E+00
 0.71875  0.0000000E+00
 0.79925  0.0000000E+00
 0.87975  0.0000000E+00
 0.96025  0.0000000E+00
 1.04075  0.0000000E+00
 1.12125  0.0000000E+00
 1.20175  0.0000000E+00
 1.28225  0.0000000E+00
 1.36275  0.0000000E+00
 1.44325  0.0000000E+00
 1.52375  0.0000000E+00
 1.60425  0.0000000E+00
 1.68475  0.0000000E+00
 1.76525  0.0000000E+00
 1.84575  0.0000000E+00
 1.92625  0.0000000E+00
 2.00675  0.0000000E+00
 2.08725  0.0000000E+00
 2.16775  0.0000000E+00
 2.24825  0.0000000E+00
 2.32875  0.0000000E+00
 2.40925  0.0000000E+00
 2.48975  0.0000000E+00
 2.57025  0.0000000E+00
 2.65075  0.0000000E+00
 2.73125  0.0000000E+00
 2.81175  0.0000000E+00
 2.89225  35.2533
 2.97275  34.762
 3.05325  34.3142
 3.13375  35.5713
 3.21425  35.089
 3.29475  34.4939
 3.37525  34.2603
 3.45575  34.2751
 3.53625  34.1489
 3.61675  33.3739
 3.69725  32.7609
 3.77775  33.0045
 3.85825  33.2479
 3.93875  32.5293
 4.01925  32.5249
 4.09975  32.0715
 4.18025  32.0326
 4.26075  32.4953
 4.34125  32.2268
 4.42175  32.7334
 4.50225  32.3713
 4.58275  32.6357
 4.66325  32.7168
 4.74375  32.8422
 4.82425  32.6727
 4.90475  33.28
 4.98525  33.0919
 5.06575  33.4051
 5.14625  33.7301
 5.22675  34.0774
 5.30725  34.0452
 5.38775  34.3981
 5.46825  34.8314
 5.54875  34.986
 5.62925  35.5365
 5.70975  35.6863
 5.79025  35.8195
 5.87075  36.7484
 5.95125  49.7352
 6.03175  47.8596
 6.11225  37.5716
 6.19275  37.2796
 6.27325  37.7359
 6.35375  38.2159
 6.43425  38.7514
 6.51475  39.2985
 6.59525  39.8607
 6.67575  40.1738
 6.75625  40.7972
 6.83675  41.5497
 6.91725  42.1319
 6.99775  42.2756
 7.07825  42.6342
 7.15875  43.2534
 7.23925  43.5106
 7.31975  43.7638
 7.40025  43.9559
 7.48075  44.0818
 7.56125  44.5108
 7.64175  44.5636
 7.72225  44.5443
 7.80275  44.3384
 7.88325  44.1171
 7.96375  43.9025
 8.04425  43.4344
 8.12475  42.8256
 8.20525  42.0326
 8.28575  41.1099
 8.36625  40.0336
 8.44675  39.1231
 8.52725  37.9425
 8.60775  36.4648
 8.68825  35.2772
 8.76875  33.9901
 8.84925  33.1206
 8.92975  32.2373
 9.01025  30.8728
 9.09075  29.9802
 9.17125  29.2288
 9.25175  28.309
 9.33225  27.7215
 9.41275  26.8652
 9.49325  26.4855
 9.57375  26.0651
 9.65425  25.8568
 9.73475  25.3556
 9.81525  24.98
 9.89575  24.7691
 9.97625  24.4892
 10.0567  24.2731
 10.1373  24.0819
 10.2178  23.8204
 10.2982  23.7563
 10.3788  23.4282
 10.4593  23.347
 10.5397  23.129
 10.6203  23.1349
 10.7007  23.0594
 10.7813  23.0387
 10.8618  22.8242
 10.9422  22.7524
 11.0228  22.914
 11.1033  23.0978
 11.1837  22.8584
 11.2643  22.8244
 11.3447  22.9085
 11.4253  23.1977
 11.5058  24.2958
 11.5862  40.7422
 11.6668  24.8024
 11.7473  23.2689
 11.8277  22.8087
 11.9083  22.8747
 11.9887  25.0737
 12.0693  23.8292
 12.1498  24.3958
 12.2302  22.7169
 12.3108  22.7418
 12.3913  22.6462
 12.4718  22.7492
 12.5523  22.7949
 12.6328  22.9969
 12.7133  23.0477
 12.7938  23.2606
 12.8742  23.4341
 12.9548  23.8837
 13.0353  24.398
 13.1158  25.0005
 13.1963  25.8657
 13.2768  26.8852
 13.3573  27.8562
 13.4378  28.7988
 13.5183  29.783
 13.5988  30.306
 13.6793  30.4456
 13.7598  30.8561
 13.8403  32.1227
 13.9208  74.9448
 14.0013  52.5447
 14.0818  29.9015
 14.1623  28.1612
 14.2428  27.1952
 14.3233  26.6077
 14.4038  26.2652
 14.4843  25.9517
 14.5648  25.7277
 14.6453  25.4682
 14.7258  25.2639
 14.8063  25.1499
 14.8868  25.1039
 14.9673  24.95
 15.0478  24.9634
 15.1283  25.5725
 15.2088  28.373
 15.2892  25.0314
 15.3698  24.8085
 15.4503  24.7015
 15.5308  24.511
 15.6113  24.6728
 15.6918  24.7683
 15.7723  24.6421
 15.8528  24.6809
 15.9332  24.871
 16.0138  24.7555
 16.0943  24.7681
 16.1748  25.1124
 16.2553  27.6003
 16.3358  25.2824
 16.4163  24.8971
 16.4967  24.7041
 16.5773  24.6745
 16.6578  24.6066
 16.7383  24.604
 16.8188  24.5306
 16.8992  24.3568
 16.9798  24.4066
 17.0603  24.2823
 17.1408  24.2635
 17.2213  24.2013
 17.3017  24.1848
 17.3823  24.0732
 17.4628  23.9933
 17.5433  24.1084
 17.6238  24.0721
 17.7042  24.0712
 17.7847  23.9646
 17.8653  23.8835
 17.9458  23.998
 18.0263  24.897
 18.1068  28.8845
 18.1872  24.4233
 18.2678  23.9446
 18.3483  23.7364
 18.4288  23.7878
 18.5093  23.6041
 18.5897  23.7204
 18.6703  23.437
 18.7508  23.5895
 18.8313  23.5405
 18.9118  23.5261
 18.9922  23.5136
 19.0727  23.7482
 19.1533  23.7331
 19.2338  23.5805
 19.3143  23.7645
 19.3948  23.7946
 19.4752  23.7773
 19.5558  23.9889
 19.6363  24.3746
 19.7168  26.5008
 19.7973  26.1423
 19.8777  30.3921
 19.9582  24.3311
 20.0388  24.0509
 20.1193  23.8633
 20.1998  23.8811
 20.2803  23.8664
 20.3607  23.7896
 20.4413  23.7832
 20.5218  23.7799
 20.6023  24.0344
 20.6828  24.2148
 20.7632  26.8778
 20.8438  24.4582
 20.9243  24.2289
 21.0048  24.0811
 21.0853  24.1262
 21.1658  23.9451
 21.2462  23.9928
 21.3268  24.0364
 21.4073  24.0417
 21.4878  24.0847
 21.5683  24.0799
 21.6487  24.3102
 21.7293  24.2795
 21.8098  24.2107
 21.8903  24.2173
 21.9708  24.2677
 22.0512  24.4178
 22.1318  24.344
 22.2123  24.4803
 22.2928  24.5431
 22.3733  24.6601
 22.4538  24.7796
 22.5343  24.9229
 22.6148  25.0625
 22.6953  25.2607
 22.7758  25.3825
 22.8563  25.5901
 22.9367  26.0461
 22.9943  26.3335