File: test-data-xrd/xrd-map-34-ID-E/Data_0141.chi
F:\20151113_APS_34IDE\\Brian\Particle1\OCV\Data_0141.tif
2-Theta Angle (Degrees)
Intensity
       2000
 0.07475  0.0000000E+00
 0.15525  0.0000000E+00
 0.23575  0.0000000E+00
 0.31625  0.0000000E+00
 0.39675  0.0000000E+00
 0.47725  0.0000000E+00
 0.55775  0.0000000E+00
 0.63825  0.0000000E+00
 0.71875  0.0000000E+00
 0.79925  0.0000000E+00
 0.87975  0.0000000E+00
 0.96025  0.0000000E+00
 1.04075  0.0000000E+00
 1.12125  0.0000000E+00
 1.20175  0.0000000E+00
 1.28225  0.0000000E+00
 1.36275  0.0000000E+00
 1.44325  0.0000000E+00
 1.52375  0.0000000E+00
 1.60425  0.0000000E+00
 1.68475  0.0000000E+00
 1.76525  0.0000000E+00
 1.84575  0.0000000E+00
 1.92625  0.0000000E+00
 2.00675  0.0000000E+00
 2.08725  0.0000000E+00
 2.16775  0.0000000E+00
 2.24825  0.0000000E+00
 2.32875  0.0000000E+00
 2.40925  0.0000000E+00
 2.48975  0.0000000E+00
 2.57025  0.0000000E+00
 2.65075  0.0000000E+00
 2.73125  0.0000000E+00
 2.81175  0.0000000E+00
 2.89225  35.4777
 2.97275  35.5223
 3.05325  36.5376
 3.13375  34.3194
 3.21425  34.6589
 3.29475  35.7438
 3.37525  34.7868
 3.45575  33.3516
 3.53625  33.7212
 3.61675  33.2901
 3.69725  33.0388
 3.77775  32.7695
 3.85825  33.048
 3.93875  32.5697
 4.01925  32.8002
 4.09975  32.4128
 4.18025  32.0802
 4.26075  32.4247
 4.34125  32.3455
 4.42175  32.5689
 4.50225  32.7912
 4.58275  32.2557
 4.66325  32.8136
 4.74375  32.5945
 4.82425  32.6662
 4.90475  32.9419
 4.98525  32.9534
 5.06575  33.0897
 5.14625  33.385
 5.22675  33.9434
 5.30725  33.9911
 5.38775  34.2093
 5.46825  34.7725
 5.54875  34.7097
 5.62925  35.145
 5.70975  35.1121
 5.79025  35.5537
 5.87075  36.0245
 5.95125  36.6127
 6.03175  36.3821
 6.11225  36.57
 6.19275  36.6739
 6.27325  37.3277
 6.35375  37.9482
 6.43425  38.4835
 6.51475  38.9145
 6.59525  39.5104
 6.67575  40.2056
 6.75625  40.9051
 6.83675  41.4526
 6.91725  42.0079
 6.99775  42.1637
 7.07825  42.6403
 7.15875  42.9979
 7.23925  43.4659
 7.31975  43.5895
 7.40025  43.9802
 7.48075  44.2023
 7.56125  44.4368
 7.64175  44.5952
 7.72225  44.3448
 7.80275  44.185
 7.88325  44.175
 7.96375  43.6362
 8.04425  43.366
 8.12475  42.6302
 8.20525  41.8074
 8.28575  41.1149
 8.36625  40.0367
 8.44675  38.7433
 8.52725  37.503
 8.60775  36.2285
 8.68825  35.2574
 8.76875  33.9655
 8.84925  32.7399
 8.92975  31.6777
 9.01025  30.4434
 9.09075  29.6555
 9.17125  28.8767
 9.25175  28.0334
 9.33225  27.5242
 9.41275  26.8598
 9.49325  26.5011
 9.57375  25.8232
 9.65425  25.3976
 9.73475  25.1675
 9.81525  24.8033
 9.89575  24.3878
 9.97625  24.221
 10.0567  23.9223
 10.1373  23.826
 10.2178  23.5072
 10.2982  23.4614
 10.3788  23.2873
 10.4593  23.0416
 10.5397  23.0949
 10.6203  22.8396
 10.7007  22.6905
 10.7813  22.7302
 10.8618  22.5579
 10.9422  22.4059
 11.0228  22.4293
 11.1033  22.3612
 11.1837  22.1705
 11.2643  22.1505
 11.3447  22.1689
 11.4253  22.3361
 11.5058  22.2204
 11.5862  22.6366
 11.6668  22.2192
 11.7473  22.2715
 11.8277  22.0025
 11.9083  22.1822
 11.9887  22.4918
 12.0693  22.4847
 12.1498  22.4101
 12.2302  22.1779
 12.3108  22.248
 12.3913  22.0934
 12.4718  22.363
 12.5523  22.4787
 12.6328  22.6982
 12.7133  22.6751
 12.7938  22.873
 12.8742  23.1811
 12.9548  23.4338
 13.0353  23.9074
 13.1158  24.5655
 13.1963  25.3888
 13.2768  26.4549
 13.3573  27.432
 13.4378  28.4259
 13.5183  29.2166
 13.5988  29.542
 13.6793  29.4906
 13.7598  29.154
 13.8403  28.6123
 13.9208  28.8556
 14.0013  28.2006
 14.0818  27.0449
 14.1623  26.5853
 14.2428  26.1777
 14.3233  26.023
 14.4038  25.7616
 14.4843  25.3187
 14.5648  25.3253
 14.6453  24.908
 14.7258  24.9007
 14.8063  24.8459
 14.8868  24.6664
 14.9673  24.5938
 15.0478  24.5164
 15.1283  24.3429
 15.2088  24.5884
 15.2892  24.2139
 15.3698  24.2484
 15.4503  24.1625
 15.5308  24.1847
 15.6113  24.2865
 15.6918  24.2261
 15.7723  24.3084
 15.8528  24.2623
 15.9332  24.3103
 16.0138  24.3286
 16.0943  24.5421
 16.1748  24.6637
 16.2553  25.2455
 16.3358  24.602
 16.4163  24.4198
 16.4967  24.3763
 16.5773  24.3104
 16.6578  24.2298
 16.7383  24.179
 16.8188  24.0385
 16.8992  24.0788
 16.9798  24.0514
 17.0603  23.9086
 17.1408  23.868
 17.2213  23.832
 17.3017  23.8373
 17.3823  23.6639
 17.4628  23.7135
 17.5433  23.596
 17.6238  23.5929
 17.7042  23.3742
 17.7847  23.454
 17.8653  23.3795
 17.9458  23.5469
 18.0263  23.5163
 18.1068  23.5562
 18.1872  23.5698
 18.2678  23.2301
 18.3483  23.3826
 18.4288  23.4163
 18.5093  23.2004
 18.5897  23.1605
 18.6703  23.2411
 18.7508  23.224
 18.8313  23.1566
 18.9118  23.1842
 18.9922  23.1495
 19.0727  23.2344
 19.1533  23.077
 19.2338  23.5084
 19.3143  23.1604
 19.3948  23.2721
 19.4752  23.3694
 19.5558  23.2371
 19.6363  23.4437
 19.7168  23.6354
 19.7973  23.4582
 19.8777  23.5611
 19.9582  23.354
 20.0388  23.3134
 20.1193  23.5043
 20.1998  23.3538
 20.2803  23.4034
 20.3607  23.3951
 20.4413  23.3971
 20.5218  23.3866
 20.6023  23.4196
 20.6828  23.4068
 20.7632  23.8022
 20.8438  23.5872
 20.9243  23.4963
 21.0048  23.5717
 21.0853  23.5396
 21.1658  23.447
 21.2462  23.5817
 21.3268  23.5223
 21.4073  23.5572
 21.4878  23.6769
 21.5683  23.6583
 21.6487  23.6504
 21.7293  23.7436
 21.8098  23.8299
 21.8903  23.9067
 21.9708  23.8615
 22.0512  23.9935
 22.1318  23.9759
 22.2123  24.2185
 22.2928  24.1267
 22.3733  24.2597
 22.4538  24.3646
 22.5343  24.4385
 22.6148  24.5912
 22.6953  24.8106
 22.7758  24.8765
 22.8563  25.1076
 22.9367  25.4861
 22.9943  25.771