File: test-data-xrd/xrd-map-34-ID-E/Data_0008.chi
F:\20151113_APS_34IDE\\Brian\Particle1\OCV\Data_0008.tif
2-Theta Angle (Degrees)
Intensity
       2000
 0.07475  0.0000000E+00
 0.15525  0.0000000E+00
 0.23575  0.0000000E+00
 0.31625  0.0000000E+00
 0.39675  0.0000000E+00
 0.47725  0.0000000E+00
 0.55775  0.0000000E+00
 0.63825  0.0000000E+00
 0.71875  0.0000000E+00
 0.79925  0.0000000E+00
 0.87975  0.0000000E+00
 0.96025  0.0000000E+00
 1.04075  0.0000000E+00
 1.12125  0.0000000E+00
 1.20175  0.0000000E+00
 1.28225  0.0000000E+00
 1.36275  0.0000000E+00
 1.44325  0.0000000E+00
 1.52375  0.0000000E+00
 1.60425  0.0000000E+00
 1.68475  0.0000000E+00
 1.76525  0.0000000E+00
 1.84575  0.0000000E+00
 1.92625  0.0000000E+00
 2.00675  0.0000000E+00
 2.08725  0.0000000E+00
 2.16775  0.0000000E+00
 2.24825  0.0000000E+00
 2.32875  0.0000000E+00
 2.40925  0.0000000E+00
 2.48975  0.0000000E+00
 2.57025  0.0000000E+00
 2.65075  0.0000000E+00
 2.73125  0.0000000E+00
 2.81175  0.0000000E+00
 2.89225  35.0249
 2.97275  35.4267
 3.05325  36.6152
 3.13375  35.6398
 3.21425  36.3215
 3.29475  34.5664
 3.37525  34.0431
 3.45575  34.0375
 3.53625  34.1738
 3.61675  33.5378
 3.69725  33.1414
 3.77775  33.231
 3.85825  32.9698
 3.93875  32.6943
 4.01925  32.9184
 4.09975  32.018
 4.18025  32.3417
 4.26075  32.3259
 4.34125  32.5437
 4.42175  32.2512
 4.50225  31.9877
 4.58275  32.6547
 4.66325  32.8244
 4.74375  32.8537
 4.82425  32.9147
 4.90475  32.9636
 4.98525  33.2492
 5.06575  33.829
 5.14625  33.9212
 5.22675  33.9086
 5.30725  34.4462
 5.38775  34.4331
 5.46825  34.8329
 5.54875  35.1149
 5.62925  34.9009
 5.70975  35.2632
 5.79025  35.7949
 5.87075  36.0029
 5.95125  37.7716
 6.03175  37.1411
 6.11225  36.8095
 6.19275  36.9324
 6.27325  37.5013
 6.35375  38.1683
 6.43425  38.6424
 6.51475  39.43
 6.59525  39.8035
 6.67575  40.263
 6.75625  40.591
 6.83675  41.2883
 6.91725  41.9483
 6.99775  42.4686
 7.07825  42.9206
 7.15875  43.4619
 7.23925  43.5005
 7.31975  44.0466
 7.40025  44.0711
 7.48075  44.1931
 7.56125  44.4568
 7.64175  44.5767
 7.72225  44.4792
 7.80275  44.3737
 7.88325  44.1668
 7.96375  43.7098
 8.04425  43.298
 8.12475  42.7504
 8.20525  41.953
 8.28575  41.2981
 8.36625  40.2763
 8.44675  38.8599
 8.52725  37.7729
 8.60775  36.326
 8.68825  35.3701
 8.76875  33.7808
 8.84925  32.9864
 8.92975  32.1222
 9.01025  30.9317
 9.09075  29.8967
 9.17125  29.0488
 9.25175  28.2133
 9.33225  27.5628
 9.41275  27.1396
 9.49325  26.5907
 9.57375  25.9904
 9.65425  25.6845
 9.73475  25.2058
 9.81525  24.9132
 9.89575  24.6821
 9.97625  24.4952
 10.0567  24.0668
 10.1373  24.1173
 10.2178  23.7296
 10.2982  23.5427
 10.3788  23.4133
 10.4593  23.2351
 10.5397  23.1744
 10.6203  23.1209
 10.7007  23.0564
 10.7813  22.9339
 10.8618  22.7558
 10.9422  22.7282
 11.0228  22.7054
 11.1033  22.5558
 11.1837  22.5791
 11.2643  22.3724
 11.3447  22.4629
 11.4253  22.8596
 11.5058  22.4279
 11.5862  23.5053
 11.6668  22.4733
 11.7473  22.4274
 11.8277  22.3517
 11.9083  22.2543
 11.9887  22.8266
 12.0693  23.9876
 12.1498  23.3359
 12.2302  22.5248
 12.3108  22.6654
 12.3913  22.6031
 12.4718  22.7062
 12.5523  22.5219
 12.6328  22.6742
 12.7133  22.8395
 12.7938  23.2122
 12.8742  23.4174
 12.9548  23.6172
 13.0353  24.1643
 13.1158  24.8432
 13.1963  25.7557
 13.2768  26.6392
 13.3573  27.5629
 13.4378  28.5134
 13.5183  29.1969
 13.5988  29.6792
 13.6793  29.7671
 13.7598  29.3162
 13.8403  28.8083
 13.9208  29.9926
 14.0013  28.922
 14.0818  27.4957
 14.1623  26.8806
 14.2428  26.5452
 14.3233  26.159
 14.4038  25.9954
 14.4843  25.5805
 14.5648  25.4916
 14.6453  25.1651
 14.7258  24.9284
 14.8063  24.9826
 14.8868  24.7909
 14.9673  24.6707
 15.0478  24.7498
 15.1283  24.706
 15.2088  25.2585
 15.2892  24.5212
 15.3698  24.3692
 15.4503  24.5172
 15.5308  24.4344
 15.6113  24.4758
 15.6918  24.5785
 15.7723  24.477
 15.8528  24.5517
 15.9332  24.5944
 16.0138  24.5365
 16.0943  24.65
 16.1748  24.8435
 16.2553  25.5756
 16.3358  24.8763
 16.4163  24.7186
 16.4967  24.5568
 16.5773  24.4995
 16.6578  24.4835
 16.7383  24.3312
 16.8188  24.2464
 16.8992  24.3488
 16.9798  24.1472
 17.0603  24.1172
 17.1408  24.1068
 17.2213  24.1118
 17.3017  24.1695
 17.3823  23.9347
 17.4628  23.9048
 17.5433  23.8363
 17.6238  23.7044
 17.7042  23.7797
 17.7847  23.7735
 17.8653  23.7373
 17.9458  23.6953
 18.0263  23.9692
 18.1068  24.1014
 18.1872  23.637
 18.2678  23.4498
 18.3483  23.5833
 18.4288  23.5406
 18.5093  23.4603
 18.5897  23.5741
 18.6703  23.5349
 18.7508  23.3876
 18.8313  23.4727
 18.9118  23.5044
 18.9922  23.5528
 19.0727  23.5175
 19.1533  23.4767
 19.2338  23.3892
 19.3143  23.494
 19.3948  23.5242
 19.4752  23.6831
 19.5558  23.6735
 19.6363  23.7432
 19.7168  24.5424
 19.7973  24.0569
 19.8777  25.4668
 19.9582  23.7168
 20.0388  23.6238
 20.1193  23.6025
 20.1998  23.6806
 20.2803  23.668
 20.3607  23.7141
 20.4413  23.6643
 20.5218  23.6782
 20.6023  23.7524
 20.6828  23.8104
 20.7632  24.509
 20.8438  23.9769
 20.9243  23.8499
 21.0048  23.8246
 21.0853  23.7151
 21.1658  23.7365
 21.2462  23.8962
 21.3268  23.8614
 21.4073  23.9071
 21.4878  23.9039
 21.5683  24.0387
 21.6487  24.0196
 21.7293  24.0599
 21.8098  24.1888
 21.8903  24.0498
 21.9708  24.1371
 22.0512  24.1525
 22.1318  24.3553
 22.2123  24.3021
 22.2928  24.4523
 22.3733  24.4923
 22.4538  24.6265
 22.5343  24.6583
 22.6148  24.8334
 22.6953  25.0308
 22.7758  25.194
 22.8563  25.4962
 22.9367  25.8317
 22.9943  26.0459