File: test-data-xrd/xrd-map-34-ID-E/Data_0082.chi
F:\20151113_APS_34IDE\\Brian\Particle1\OCV\Data_0082.tif
2-Theta Angle (Degrees)
Intensity
       2000
 0.07475  0.0000000E+00
 0.15525  0.0000000E+00
 0.23575  0.0000000E+00
 0.31625  0.0000000E+00
 0.39675  0.0000000E+00
 0.47725  0.0000000E+00
 0.55775  0.0000000E+00
 0.63825  0.0000000E+00
 0.71875  0.0000000E+00
 0.79925  0.0000000E+00
 0.87975  0.0000000E+00
 0.96025  0.0000000E+00
 1.04075  0.0000000E+00
 1.12125  0.0000000E+00
 1.20175  0.0000000E+00
 1.28225  0.0000000E+00
 1.36275  0.0000000E+00
 1.44325  0.0000000E+00
 1.52375  0.0000000E+00
 1.60425  0.0000000E+00
 1.68475  0.0000000E+00
 1.76525  0.0000000E+00
 1.84575  0.0000000E+00
 1.92625  0.0000000E+00
 2.00675  0.0000000E+00
 2.08725  0.0000000E+00
 2.16775  0.0000000E+00
 2.24825  0.0000000E+00
 2.32875  0.0000000E+00
 2.40925  0.0000000E+00
 2.48975  0.0000000E+00
 2.57025  0.0000000E+00
 2.65075  0.0000000E+00
 2.73125  0.0000000E+00
 2.81175  0.0000000E+00
 2.89225  35.5846
 2.97275  35.629
 3.05325  35.9987
 3.13375  35.4143
 3.21425  35.8436
 3.29475  34.3632
 3.37525  34.6202
 3.45575  34.7009
 3.53625  33.1307
 3.61675  33.1624
 3.69725  33.2598
 3.77775  32.8963
 3.85825  32.918
 3.93875  32.6258
 4.01925  32.687
 4.09975  32.0931
 4.18025  32.505
 4.26075  32.2012
 4.34125  32.1492
 4.42175  32.2409
 4.50225  32.5475
 4.58275  32.5088
 4.66325  32.3082
 4.74375  32.6896
 4.82425  32.4224
 4.90475  33.1958
 4.98525  33.0688
 5.06575  33.4078
 5.14625  33.7282
 5.22675  33.7916
 5.30725  34.2655
 5.38775  34.4359
 5.46825  34.655
 5.54875  35.0355
 5.62925  35.3091
 5.70975  35.4545
 5.79025  35.7889
 5.87075  36.8215
 5.95125  58.8702
 6.03175  48.1248
 6.11225  37.5279
 6.19275  37.2708
 6.27325  37.7398
 6.35375  37.9229
 6.43425  38.1978
 6.51475  38.7767
 6.59525  39.3563
 6.67575  40.1865
 6.75625  40.8091
 6.83675  41.2905
 6.91725  41.4947
 6.99775  42.231
 7.07825  42.4191
 7.15875  42.68
 7.23925  43.1026
 7.31975  43.2662
 7.40025  43.6708
 7.48075  43.9462
 7.56125  44.0191
 7.64175  44.1049
 7.72225  44.1242
 7.80275  44.0243
 7.88325  43.5474
 7.96375  43.232
 8.04425  43.0223
 8.12475  42.2985
 8.20525  41.5827
 8.28575  40.7609
 8.36625  39.7
 8.44675  38.5023
 8.52725  37.4504
 8.60775  36.1415
 8.68825  35.0507
 8.76875  33.9408
 8.84925  32.5779
 8.92975  31.6032
 9.01025  30.4456
 9.09075  29.5775
 9.17125  28.7639
 9.25175  27.8701
 9.33225  27.4513
 9.41275  26.9763
 9.49325  26.455
 9.57375  25.9956
 9.65425  25.5416
 9.73475  25.3434
 9.81525  24.9516
 9.89575  24.5739
 9.97625  24.3883
 10.0567  24.2145
 10.1373  23.9314
 10.2178  23.7773
 10.2982  23.6893
 10.3788  23.503
 10.4593  23.3017
 10.5397  23.1526
 10.6203  23.2364
 10.7007  22.9689
 10.7813  22.9547
 10.8618  22.8178
 10.9422  22.585
 11.0228  22.6938
 11.1033  22.6609
 11.1837  22.5065
 11.2643  22.5762
 11.3447  22.6455
 11.4253  22.879
 11.5058  23.1644
 11.5862  31.9644
 11.6668  25.0946
 11.7473  22.71
 11.8277  22.6845
 11.9083  22.7992
 11.9887  24.4059
 12.0693  24.8916
 12.1498  24.5329
 12.2302  22.7687
 12.3108  22.7156
 12.3913  22.6347
 12.4718  22.5917
 12.5523  22.792
 12.6328  22.9883
 12.7133  22.9594
 12.7938  23.2128
 12.8742  23.376
 12.9548  23.7033
 13.0353  24.2314
 13.1158  24.8325
 13.1963  25.6486
 13.2768  26.6015
 13.3573  27.6906
 13.4378  28.4548
 13.5183  29.2948
 13.5988  29.9282
 13.6793  29.9308
 13.7598  29.906
 13.8403  30.4968
 13.9208  48.7869
 14.0013  39.7792
 14.0818  28.5303
 14.1623  27.4568
 14.2428  26.8046
 14.3233  26.4176
 14.4038  26.1276
 14.4843  25.6929
 14.5648  25.5852
 14.6453  25.4499
 14.7258  25.1951
 14.8063  25.0541
 14.8868  25.039
 14.9673  24.8696
 15.0478  24.9794
 15.1283  25.5828
 15.2088  29.6219
 15.2892  24.989
 15.3698  24.6763
 15.4503  24.5014
 15.5308  24.5819
 15.6113  24.4786
 15.6918  24.5564
 15.7723  24.6036
 15.8528  24.6859
 15.9332  24.8109
 16.0138  24.8004
 16.0943  24.7017
 16.1748  24.9468
 16.2553  26.1195
 16.3358  25.0797
 16.4163  24.744
 16.4967  24.6176
 16.5773  24.6106
 16.6578  24.5997
 16.7383  24.4148
 16.8188  24.557
 16.8992  24.4607
 16.9798  24.3742
 17.0603  24.2761
 17.1408  24.1841
 17.2213  24.2857
 17.3017  24.1722
 17.3823  24.0837
 17.4628  24.0293
 17.5433  24.1064
 17.6238  23.9967
 17.7042  23.97
 17.7847  23.9418
 17.8653  23.9453
 17.9458  24.1677
 18.0263  25.6272
 18.1068  27.9793
 18.1872  24.829
 18.2678  23.8354
 18.3483  23.6932
 18.4288  23.7572
 18.5093  23.6492
 18.5897  23.7476
 18.6703  23.6603
 18.7508  23.5575
 18.8313  23.6433
 18.9118  23.6256
 18.9922  23.7598
 19.0727  23.7152
 19.1533  23.7858
 19.2338  23.641
 19.3143  23.5609
 19.3948  23.8199
 19.4752  23.706
 19.5558  23.8062
 19.6363  24.3196
 19.7168  27.3775
 19.7973  25.6265
 19.8777  28.0751
 19.9582  24.1525
 20.0388  23.8521
 20.1193  23.8894
 20.1998  23.8844
 20.2803  23.8006
 20.3607  23.8516
 20.4413  23.8686
 20.5218  23.803
 20.6023  23.9976
 20.6828  24.4427
 20.7632  26.3041
 20.8438  24.4399
 20.9243  24.1545
 21.0048  23.9519
 21.0853  24.0177
 21.1658  23.9352
 21.2462  24.028
 21.3268  23.9644
 21.4073  24.0048
 21.4878  24.1131
 21.5683  24.0935
 21.6487  24.1539
 21.7293  24.2004
 21.8098  24.202
 21.8903  24.2978
 21.9708  24.3446
 22.0512  24.4045
 22.1318  24.4444
 22.2123  24.2601
 22.2928  24.59
 22.3733  24.6598
 22.4538  24.7545
 22.5343  24.8017
 22.6148  24.9374
 22.6953  25.2239
 22.7758  25.3602
 22.8563  25.72
 22.9367  26.0027
 22.9943  26.5034