File: test-data-xrd/xrd-map-34-ID-E/Data_0066.chi
F:\20151113_APS_34IDE\\Brian\Particle1\OCV\Data_0066.tif
2-Theta Angle (Degrees)
Intensity
       2000
 0.07475  0.0000000E+00
 0.15525  0.0000000E+00
 0.23575  0.0000000E+00
 0.31625  0.0000000E+00
 0.39675  0.0000000E+00
 0.47725  0.0000000E+00
 0.55775  0.0000000E+00
 0.63825  0.0000000E+00
 0.71875  0.0000000E+00
 0.79925  0.0000000E+00
 0.87975  0.0000000E+00
 0.96025  0.0000000E+00
 1.04075  0.0000000E+00
 1.12125  0.0000000E+00
 1.20175  0.0000000E+00
 1.28225  0.0000000E+00
 1.36275  0.0000000E+00
 1.44325  0.0000000E+00
 1.52375  0.0000000E+00
 1.60425  0.0000000E+00
 1.68475  0.0000000E+00
 1.76525  0.0000000E+00
 1.84575  0.0000000E+00
 1.92625  0.0000000E+00
 2.00675  0.0000000E+00
 2.08725  0.0000000E+00
 2.16775  0.0000000E+00
 2.24825  0.0000000E+00
 2.32875  0.0000000E+00
 2.40925  0.0000000E+00
 2.48975  0.0000000E+00
 2.57025  0.0000000E+00
 2.65075  0.0000000E+00
 2.73125  0.0000000E+00
 2.81175  0.0000000E+00
 2.89225  35.4635
 2.97275  35.7604
 3.05325  34.8706
 3.13375  34.6392
 3.21425  34.754
 3.29475  33.741
 3.37525  34.5626
 3.45575  34.6486
 3.53625  34.4259
 3.61675  32.8138
 3.69725  33.241
 3.77775  32.7795
 3.85825  31.9729
 3.93875  32.2937
 4.01925  32.5905
 4.09975  32.0599
 4.18025  32.1608
 4.26075  32.2188
 4.34125  32.0881
 4.42175  32.1213
 4.50225  32.1409
 4.58275  32.3199
 4.66325  32.5052
 4.74375  32.0754
 4.82425  32.3381
 4.90475  32.4348
 4.98525  32.658
 5.06575  33.0055
 5.14625  33.2312
 5.22675  33.6101
 5.30725  33.4769
 5.38775  33.9817
 5.46825  34.2476
 5.54875  34.793
 5.62925  34.411
 5.70975  34.9174
 5.79025  35.3346
 5.87075  35.2163
 5.95125  37.3444
 6.03175  37.3565
 6.11225  36.4396
 6.19275  36.9064
 6.27325  37.1076
 6.35375  37.6783
 6.43425  38.1735
 6.51475  38.6297
 6.59525  39.1345
 6.67575  39.6712
 6.75625  40.2698
 6.83675  41.0825
 6.91725  41.3586
 6.99775  41.7674
 7.07825  42.4749
 7.15875  42.6653
 7.23925  43.1152
 7.31975  43.1769
 7.40025  43.2714
 7.48075  43.5626
 7.56125  43.9802
 7.64175  43.7086
 7.72225  43.9188
 7.80275  43.887
 7.88325  43.6793
 7.96375  43.3582
 8.04425  42.767
 8.12475  42.3859
 8.20525  41.2963
 8.28575  40.5326
 8.36625  39.2008
 8.44675  38.2211
 8.52725  37.3016
 8.60775  35.7142
 8.68825  34.735
 8.76875  33.3405
 8.84925  32.3108
 8.92975  31.468
 9.01025  30.4374
 9.09075  29.3628
 9.17125  28.6829
 9.25175  27.8829
 9.33225  27.0789
 9.41275  26.5333
 9.49325  26.1875
 9.57375  25.5589
 9.65425  25.2015
 9.73475  24.7897
 9.81525  24.4483
 9.89575  24.3793
 9.97625  23.8802
 10.0567  23.7779
 10.1373  23.6276
 10.2178  23.5796
 10.2982  23.3527
 10.3788  23.1344
 10.4593  22.9901
 10.5397  22.7021
 10.6203  22.6778
 10.7007  22.6017
 10.7813  22.444
 10.8618  22.3733
 10.9422  22.2927
 11.0228  22.1158
 11.1033  22.1677
 11.1837  22.2069
 11.2643  22.1939
 11.3447  22.0683
 11.4253  22.2847
 11.5058  22.1755
 11.5862  23.201
 11.6668  22.4248
 11.7473  22.1313
 11.8277  22.1333
 11.9083  22.0531
 11.9887  22.3701
 12.0693  22.3445
 12.1498  22.4845
 12.2302  22.0646
 12.3108  22.6934
 12.3913  22.2481
 12.4718  22.2286
 12.5523  22.4042
 12.6328  22.5392
 12.7133  22.7577
 12.7938  22.8638
 12.8742  23.1985
 12.9548  23.4153
 13.0353  23.8695
 13.1158  24.6095
 13.1963  25.2019
 13.2768  26.3661
 13.3573  27.4501
 13.4378  28.309
 13.5183  28.8399
 13.5988  29.1859
 13.6793  29.3347
 13.7598  28.8712
 13.8403  28.3767
 13.9208  29.4833
 14.0013  28.8463
 14.0818  27.1566
 14.1623  26.5465
 14.2428  26.043
 14.3233  25.8741
 14.4038  25.58
 14.4843  25.192
 14.5648  25.4038
 14.6453  24.925
 14.7258  24.8173
 14.8063  24.6738
 14.8868  24.5787
 14.9673  24.5238
 15.0478  24.3811
 15.1283  24.5143
 15.2088  24.7262
 15.2892  23.9841
 15.3698  24.0993
 15.4503  24.1384
 15.5308  24.0819
 15.6113  24.1624
 15.6918  24.3199
 15.7723  24.2395
 15.8528  24.1792
 15.9332  24.2071
 16.0138  24.1673
 16.0943  24.3925
 16.1748  24.5368
 16.2553  24.6637
 16.3358  24.5689
 16.4163  24.3473
 16.4967  24.4572
 16.5773  24.2437
 16.6578  24.1568
 16.7383  24.2147
 16.8188  24.1239
 16.8992  23.9583
 16.9798  23.9381
 17.0603  23.8151
 17.1408  23.8591
 17.2213  23.8618
 17.3017  23.684
 17.3823  23.6451
 17.4628  23.5631
 17.5433  23.5888
 17.6238  23.5327
 17.7042  23.4837
 17.7847  23.4905
 17.8653  23.4458
 17.9458  23.3883
 18.0263  23.5329
 18.1068  23.8813
 18.1872  23.2016
 18.2678  23.1674
 18.3483  23.2025
 18.4288  23.246
 18.5093  23.2482
 18.5897  23.1569
 18.6703  23.1258
 18.7508  23.0764
 18.8313  23.1696
 18.9118  23.1094
 18.9922  23.0574
 19.0727  23.1871
 19.1533  23.1379
 19.2338  23.0576
 19.3143  23.1118
 19.3948  23.201
 19.4752  23.4495
 19.5558  23.2418
 19.6363  23.244
 19.7168  23.8344
 19.7973  23.4836
 19.8777  23.7027
 19.9582  23.2849
 20.0388  23.2689
 20.1193  23.1718
 20.1998  23.3581
 20.2803  23.2174
 20.3607  23.2651
 20.4413  23.5399
 20.5218  23.248
 20.6023  23.4141
 20.6828  23.5214
 20.7632  23.8524
 20.8438  23.5424
 20.9243  23.5482
 21.0048  23.5018
 21.0853  23.4576
 21.1658  23.4768
 21.2462  23.6101
 21.3268  23.5368
 21.4073  23.6137
 21.4878  23.5768
 21.5683  23.7499
 21.6487  23.8165
 21.7293  23.7113
 21.8098  23.7366
 21.8903  23.7905
 21.9708  23.8622
 22.0512  23.8627
 22.1318  23.9584
 22.2123  24.083
 22.2928  24.1273
 22.3733  24.1557
 22.4538  24.3435
 22.5343  24.5771
 22.6148  24.6223
 22.6953  24.7481
 22.7758  24.9982
 22.8563  25.1345
 22.9367  25.5035
 22.9943  25.885