File: test-data-xrd/xrd-map-34-ID-E/Data_0067.chi
F:\20151113_APS_34IDE\\Brian\Particle1\OCV\Data_0067.tif
2-Theta Angle (Degrees)
Intensity
       2000
 0.07475  0.0000000E+00
 0.15525  0.0000000E+00
 0.23575  0.0000000E+00
 0.31625  0.0000000E+00
 0.39675  0.0000000E+00
 0.47725  0.0000000E+00
 0.55775  0.0000000E+00
 0.63825  0.0000000E+00
 0.71875  0.0000000E+00
 0.79925  0.0000000E+00
 0.87975  0.0000000E+00
 0.96025  0.0000000E+00
 1.04075  0.0000000E+00
 1.12125  0.0000000E+00
 1.20175  0.0000000E+00
 1.28225  0.0000000E+00
 1.36275  0.0000000E+00
 1.44325  0.0000000E+00
 1.52375  0.0000000E+00
 1.60425  0.0000000E+00
 1.68475  0.0000000E+00
 1.76525  0.0000000E+00
 1.84575  0.0000000E+00
 1.92625  0.0000000E+00
 2.00675  0.0000000E+00
 2.08725  0.0000000E+00
 2.16775  0.0000000E+00
 2.24825  0.0000000E+00
 2.32875  0.0000000E+00
 2.40925  0.0000000E+00
 2.48975  0.0000000E+00
 2.57025  0.0000000E+00
 2.65075  0.0000000E+00
 2.73125  0.0000000E+00
 2.81175  0.0000000E+00
 2.89225  34.2749
 2.97275  34.6482
 3.05325  35.4418
 3.13375  34.1987
 3.21425  35.1759
 3.29475  35.2899
 3.37525  34.0322
 3.45575  34.2649
 3.53625  33.4039
 3.61675  32.9219
 3.69725  32.6962
 3.77775  32.9098
 3.85825  32.4204
 3.93875  31.9148
 4.01925  32.888
 4.09975  32.2633
 4.18025  32.0011
 4.26075  31.8997
 4.34125  31.9229
 4.42175  32.179
 4.50225  32.2305
 4.58275  32.6096
 4.66325  32.7573
 4.74375  32.3385
 4.82425  32.5474
 4.90475  32.8943
 4.98525  32.8879
 5.06575  33.0247
 5.14625  33.5519
 5.22675  34.0456
 5.30725  33.8082
 5.38775  34.202
 5.46825  34.7219
 5.54875  34.854
 5.62925  34.9105
 5.70975  35.2868
 5.79025  35.6752
 5.87075  36.233
 5.95125  46.9824
 6.03175  48.1072
 6.11225  36.9923
 6.19275  37.0232
 6.27325  37.0349
 6.35375  37.7456
 6.43425  37.8171
 6.51475  38.5469
 6.59525  38.932
 6.67575  40.063
 6.75625  40.2094
 6.83675  40.8322
 6.91725  41.3182
 6.99775  41.6947
 7.07825  42.1597
 7.15875  42.9523
 7.23925  43.1924
 7.31975  43.0211
 7.40025  43.4617
 7.48075  43.6705
 7.56125  43.8588
 7.64175  43.9425
 7.72225  43.5858
 7.80275  43.6261
 7.88325  43.6328
 7.96375  43.1738
 8.04425  42.9577
 8.12475  42.2158
 8.20525  41.6511
 8.28575  40.7052
 8.36625  39.5011
 8.44675  38.3677
 8.52725  37.259
 8.60775  36.0214
 8.68825  34.9883
 8.76875  33.6767
 8.84925  32.4451
 8.92975  31.4264
 9.01025  30.427
 9.09075  29.8084
 9.17125  28.869
 9.25175  28.0333
 9.33225  27.1625
 9.41275  26.7287
 9.49325  26.4063
 9.57375  25.8221
 9.65425  25.5596
 9.73475  25.3065
 9.81525  24.931
 9.89575  24.5536
 9.97625  24.4123
 10.0567  24.0443
 10.1373  23.8348
 10.2178  23.6897
 10.2982  23.4853
 10.3788  23.1211
 10.4593  23.155
 10.5397  23.2036
 10.6203  22.9634
 10.7007  22.7951
 10.7813  22.7928
 10.8618  22.735
 10.9422  22.5876
 11.0228  22.5505
 11.1033  22.4911
 11.1837  22.657
 11.2643  22.392
 11.3447  22.4973
 11.4253  22.4982
 11.5058  22.9429
 11.5862  30.8848
 11.6668  23.7849
 11.7473  22.5077
 11.8277  22.4917
 11.9083  22.5319
 11.9887  24.288
 12.0693  23.8075
 12.1498  23.928
 12.2302  22.5603
 12.3108  22.4955
 12.3913  22.4455
 12.4718  22.4429
 12.5523  22.6749
 12.6328  22.7722
 12.7133  22.8531
 12.7938  23.1219
 12.8742  23.5164
 12.9548  23.6895
 13.0353  24.1059
 13.1158  24.7295
 13.1963  25.6383
 13.2768  26.3601
 13.3573  27.6633
 13.4378  28.3957
 13.5183  29.1223
 13.5988  29.7177
 13.6793  29.6558
 13.7598  29.4095
 13.8403  29.1891
 13.9208  34.0725
 14.0013  32.9513
 14.0818  27.7078
 14.1623  27.0215
 14.2428  26.4667
 14.3233  26.0972
 14.4038  25.9677
 14.4843  25.775
 14.5648  25.4361
 14.6453  25.1734
 14.7258  25.1226
 14.8063  24.9468
 14.8868  24.823
 14.9673  24.6661
 15.0478  24.7166
 15.1283  25.2277
 15.2088  26.998
 15.2892  24.6956
 15.3698  24.628
 15.4503  24.5077
 15.5308  24.5657
 15.6113  24.5074
 15.6918  24.5462
 15.7723  24.5836
 15.8528  24.4139
 15.9332  24.5279
 16.0138  24.5321
 16.0943  24.7415
 16.1748  25.137
 16.2553  29.565
 16.3358  25.0882
 16.4163  24.6915
 16.4967  24.695
 16.5773  24.5459
 16.6578  24.5518
 16.7383  24.4904
 16.8188  24.2844
 16.8992  24.3719
 16.9798  24.2879
 17.0603  24.1436
 17.1408  24.1975
 17.2213  24.1296
 17.3017  24.0538
 17.3823  23.9508
 17.4628  23.9264
 17.5433  23.8432
 17.6238  23.9507
 17.7042  23.7051
 17.7847  23.8295
 17.8653  23.8255
 17.9458  23.7447
 18.0263  24.3797
 18.1068  26.83
 18.1872  24.2299
 18.2678  23.6804
 18.3483  23.4843
 18.4288  23.6537
 18.5093  23.493
 18.5897  23.4579
 18.6703  23.5654
 18.7508  23.4391
 18.8313  23.4153
 18.9118  23.542
 18.9922  23.4035
 19.0727  23.5502
 19.1533  23.5727
 19.2338  23.4763
 19.3143  23.4657
 19.3948  23.4638
 19.4752  23.5591
 19.5558  23.8312
 19.6363  24.5556
 19.7168  26.8892
 19.7973  26.3072
 19.8777  27.3856
 19.9582  24.1393
 20.0388  23.9625
 20.1193  23.7686
 20.1998  23.7035
 20.2803  23.6602
 20.3607  23.7383
 20.4413  23.8349
 20.5218  23.7388
 20.6023  24.0778
 20.6828  24.6749
 20.7632  30.0501
 20.8438  24.5603
 20.9243  24.0498
 21.0048  23.7639
 21.0853  23.9447
 21.1658  23.9083
 21.2462  23.8531
 21.3268  23.8661
 21.4073  23.9276
 21.4878  24.0007
 21.5683  23.9757
 21.6487  23.9496
 21.7293  24.0646
 21.8098  24.4605
 21.8903  24.3658
 21.9708  24.2336
 22.0512  24.1892
 22.1318  25.5018
 22.2123  24.4195
 22.2928  24.5713
 22.3733  24.5345
 22.4538  24.6547
 22.5343  24.6475
 22.6148  24.8431
 22.6953  25.2033
 22.7758  25.3412
 22.8563  25.4037
 22.9367  26.0089
 22.9943  26.2843