File: test-data-xrd/xrd-map-34-ID-E/Data_0113.chi
F:\20151113_APS_34IDE\\Brian\Particle1\OCV\Data_0113.tif
2-Theta Angle (Degrees)
Intensity
       2000
 0.07475  0.0000000E+00
 0.15525  0.0000000E+00
 0.23575  0.0000000E+00
 0.31625  0.0000000E+00
 0.39675  0.0000000E+00
 0.47725  0.0000000E+00
 0.55775  0.0000000E+00
 0.63825  0.0000000E+00
 0.71875  0.0000000E+00
 0.79925  0.0000000E+00
 0.87975  0.0000000E+00
 0.96025  0.0000000E+00
 1.04075  0.0000000E+00
 1.12125  0.0000000E+00
 1.20175  0.0000000E+00
 1.28225  0.0000000E+00
 1.36275  0.0000000E+00
 1.44325  0.0000000E+00
 1.52375  0.0000000E+00
 1.60425  0.0000000E+00
 1.68475  0.0000000E+00
 1.76525  0.0000000E+00
 1.84575  0.0000000E+00
 1.92625  0.0000000E+00
 2.00675  0.0000000E+00
 2.08725  0.0000000E+00
 2.16775  0.0000000E+00
 2.24825  0.0000000E+00
 2.32875  0.0000000E+00
 2.40925  0.0000000E+00
 2.48975  0.0000000E+00
 2.57025  0.0000000E+00
 2.65075  0.0000000E+00
 2.73125  0.0000000E+00
 2.81175  0.0000000E+00
 2.89225  35.6141
 2.97275  34.8825
 3.05325  35.6225
 3.13375  36.4398
 3.21425  35.2097
 3.29475  33.8035
 3.37525  34.3079
 3.45575  33.7654
 3.53625  33.3951
 3.61675  32.9541
 3.69725  32.8174
 3.77775  32.743
 3.85825  32.2411
 3.93875  32.3806
 4.01925  31.967
 4.09975  32.4621
 4.18025  31.9976
 4.26075  31.7273
 4.34125  32.0128
 4.42175  32.1332
 4.50225  32.4088
 4.58275  32.1559
 4.66325  32.1959
 4.74375  33.2155
 4.82425  32.0301
 4.90475  32.51
 4.98525  32.7717
 5.06575  32.8556
 5.14625  33.3606
 5.22675  33.906
 5.30725  34.1258
 5.38775  34.4342
 5.46825  34.4038
 5.54875  34.7013
 5.62925  34.7565
 5.70975  35.139
 5.79025  35.6373
 5.87075  36.3084
 5.95125  45.065
 6.03175  43.8157
 6.11225  36.6262
 6.19275  36.8186
 6.27325  37.2551
 6.35375  37.3834
 6.43425  38.1497
 6.51475  38.7939
 6.59525  39.2233
 6.67575  40.0077
 6.75625  40.6649
 6.83675  41.2491
 6.91725  41.6946
 6.99775  41.809
 7.07825  42.6168
 7.15875  42.67
 7.23925  42.9153
 7.31975  43.3849
 7.40025  43.4072
 7.48075  43.6725
 7.56125  44.0491
 7.64175  43.9526
 7.72225  43.8012
 7.80275  43.6795
 7.88325  43.5345
 7.96375  43.3954
 8.04425  42.7597
 8.12475  42.3931
 8.20525  41.5953
 8.28575  40.5843
 8.36625  39.504
 8.44675  38.0149
 8.52725  37.0637
 8.60775  35.9488
 8.68825  35.013
 8.76875  33.6586
 8.84925  32.6356
 8.92975  31.2908
 9.01025  30.133
 9.09075  29.5147
 9.17125  28.7375
 9.25175  27.9328
 9.33225  27.3485
 9.41275  26.7467
 9.49325  26.3791
 9.57375  25.7517
 9.65425  25.312
 9.73475  24.8426
 9.81525  24.6334
 9.89575  24.3512
 9.97625  24.07
 10.0567  23.8115
 10.1373  23.666
 10.2178  23.68
 10.2982  23.4263
 10.3788  23.3338
 10.4593  23.0366
 10.5397  23.0344
 10.6203  22.8785
 10.7007  22.7869
 10.7813  22.5681
 10.8618  22.6294
 10.9422  22.4701
 11.0228  22.3261
 11.1033  22.2301
 11.1837  22.2938
 11.2643  22.3289
 11.3447  22.428
 11.4253  22.5139
 11.5058  22.9835
 11.5862  31.0448
 11.6668  25.0808
 11.7473  22.5927
 11.8277  22.3501
 11.9083  22.2862
 11.9887  22.8768
 12.0693  23.3132
 12.1498  22.9604
 12.2302  22.3382
 12.3108  22.4242
 12.3913  22.2778
 12.4718  22.3724
 12.5523  22.5839
 12.6328  22.6643
 12.7133  22.7426
 12.7938  22.8362
 12.8742  23.2754
 12.9548  23.597
 13.0353  23.9688
 13.1158  24.5981
 13.1963  25.5017
 13.2768  26.3798
 13.3573  27.4572
 13.4378  28.3567
 13.5183  29.0541
 13.5988  29.5732
 13.6793  29.2987
 13.7598  29.1853
 13.8403  29.0771
 13.9208  34.8982
 14.0013  33.2358
 14.0818  27.7327
 14.1623  26.9399
 14.2428  26.3031
 14.3233  25.7676
 14.4038  25.7489
 14.4843  25.4504
 14.5648  25.3311
 14.6453  25.1122
 14.7258  24.9156
 14.8063  24.8136
 14.8868  24.6788
 14.9673  24.5637
 15.0478  24.5639
 15.1283  24.8945
 15.2088  27.1385
 15.2892  24.6154
 15.3698  24.4906
 15.4503  24.2908
 15.5308  24.4137
 15.6113  24.3679
 15.6918  24.3946
 15.7723  24.2838
 15.8528  24.3769
 15.9332  24.5579
 16.0138  24.4935
 16.0943  24.5849
 16.1748  24.8003
 16.2553  27.1742
 16.3358  24.7642
 16.4163  24.5461
 16.4967  24.4093
 16.5773  24.2994
 16.6578  24.3126
 16.7383  24.4099
 16.8188  24.1586
 16.8992  24.1827
 16.9798  24.12
 17.0603  24.0676
 17.1408  24.0101
 17.2213  23.9516
 17.3017  23.905
 17.3823  23.7291
 17.4628  23.844
 17.5433  23.5932
 17.6238  23.7463
 17.7042  23.6807
 17.7847  23.6129
 17.8653  23.5274
 17.9458  23.6052
 18.0263  24.1263
 18.1068  25.5855
 18.1872  24.0591
 18.2678  23.4546
 18.3483  23.3921
 18.4288  23.5035
 18.5093  23.309
 18.5897  23.3959
 18.6703  23.3551
 18.7508  23.305
 18.8313  23.3531
 18.9118  23.329
 18.9922  23.4655
 19.0727  23.2832
 19.1533  23.3901
 19.2338  23.2747
 19.3143  23.3867
 19.3948  23.4562
 19.4752  23.4581
 19.5558  23.6176
 19.6363  23.935
 19.7168  26.4853
 19.7973  25.253
 19.8777  26.9173
 19.9582  24.1177
 20.0388  23.6082
 20.1193  23.5281
 20.1998  23.4435
 20.2803  23.433
 20.3607  23.4937
 20.4413  23.5237
 20.5218  23.4611
 20.6023  23.7629
 20.6828  23.9757
 20.7632  25.7194
 20.8438  23.9966
 20.9243  23.7404
 21.0048  23.7403
 21.0853  23.9007
 21.1658  23.6914
 21.2462  23.726
 21.3268  23.7396
 21.4073  23.782
 21.4878  23.8391
 21.5683  23.8067
 21.6487  24.002
 21.7293  23.8449
 21.8098  23.9786
 21.8903  24.0514
 21.9708  23.8973
 22.0512  24.0586
 22.1318  24.0987
 22.2123  24.1719
 22.2928  24.2789
 22.3733  24.2768
 22.4538  24.4836
 22.5343  24.6176
 22.6148  24.7036
 22.6953  24.8118
 22.7758  25.1305
 22.8563  25.3231
 22.9367  25.6928
 22.9943  26.049