File: test-data-xrd/xrd-map-34-ID-E/Data_0096.chi
F:\20151113_APS_34IDE\\Brian\Particle1\OCV\Data_0096.tif
2-Theta Angle (Degrees)
Intensity
       2000
 0.07475  0.0000000E+00
 0.15525  0.0000000E+00
 0.23575  0.0000000E+00
 0.31625  0.0000000E+00
 0.39675  0.0000000E+00
 0.47725  0.0000000E+00
 0.55775  0.0000000E+00
 0.63825  0.0000000E+00
 0.71875  0.0000000E+00
 0.79925  0.0000000E+00
 0.87975  0.0000000E+00
 0.96025  0.0000000E+00
 1.04075  0.0000000E+00
 1.12125  0.0000000E+00
 1.20175  0.0000000E+00
 1.28225  0.0000000E+00
 1.36275  0.0000000E+00
 1.44325  0.0000000E+00
 1.52375  0.0000000E+00
 1.60425  0.0000000E+00
 1.68475  0.0000000E+00
 1.76525  0.0000000E+00
 1.84575  0.0000000E+00
 1.92625  0.0000000E+00
 2.00675  0.0000000E+00
 2.08725  0.0000000E+00
 2.16775  0.0000000E+00
 2.24825  0.0000000E+00
 2.32875  0.0000000E+00
 2.40925  0.0000000E+00
 2.48975  0.0000000E+00
 2.57025  0.0000000E+00
 2.65075  0.0000000E+00
 2.73125  0.0000000E+00
 2.81175  0.0000000E+00
 2.89225  35.0285
 2.97275  35.3433
 3.05325  35.9821
 3.13375  34.9509
 3.21425  34.8435
 3.29475  34.5928
 3.37525  35.0165
 3.45575  34.2275
 3.53625  34.4096
 3.61675  33.5925
 3.69725  33.6632
 3.77775  33.5232
 3.85825  33.0071
 3.93875  33.248
 4.01925  33.0103
 4.09975  32.9631
 4.18025  32.6568
 4.26075  32.0932
 4.34125  32.3103
 4.42175  32.4587
 4.50225  32.9872
 4.58275  33.1235
 4.66325  33.0172
 4.74375  32.9634
 4.82425  32.8358
 4.90475  33.3901
 4.98525  33.2399
 5.06575  33.5859
 5.14625  33.8911
 5.22675  34.4055
 5.30725  34.53
 5.38775  34.7426
 5.46825  34.9223
 5.54875  35.1747
 5.62925  35.6722
 5.70975  36.116
 5.79025  36.5748
 5.87075  36.7125
 5.95125  45.4408
 6.03175  48.3637
 6.11225  37.6632
 6.19275  37.6455
 6.27325  37.9712
 6.35375  38.4722
 6.43425  39.0354
 6.51475  39.6177
 6.59525  40.4374
 6.67575  40.6592
 6.75625  41.1884
 6.83675  41.7751
 6.91725  42.2093
 6.99775  42.8892
 7.07825  42.9484
 7.15875  43.6491
 7.23925  44.1456
 7.31975  44.1963
 7.40025  44.3695
 7.48075  44.8361
 7.56125  44.8637
 7.64175  44.7923
 7.72225  44.6086
 7.80275  44.8115
 7.88325  44.3337
 7.96375  44.013
 8.04425  43.6236
 8.12475  42.9793
 8.20525  42.3192
 8.28575  41.2292
 8.36625  40.452
 8.44675  39.306
 8.52725  37.9924
 8.60775  36.6756
 8.68825  35.4083
 8.76875  34.1397
 8.84925  33.2078
 8.92975  32.0103
 9.01025  30.9638
 9.09075  30.0055
 9.17125  29.1359
 9.25175  28.4309
 9.33225  27.6962
 9.41275  27.1611
 9.49325  26.782
 9.57375  26.1136
 9.65425  25.7399
 9.73475  25.3124
 9.81525  24.9922
 9.89575  24.7522
 9.97625  24.3776
 10.0567  24.4057
 10.1373  24.1397
 10.2178  23.8718
 10.2982  23.5191
 10.3788  23.4578
 10.4593  23.458
 10.5397  23.0896
 10.6203  22.9943
 10.7007  23.0249
 10.7813  22.8703
 10.8618  22.9725
 10.9422  22.7791
 11.0228  22.7051
 11.1033  22.6907
 11.1837  22.7106
 11.2643  22.6823
 11.3447  22.8214
 11.4253  23.1295
 11.5058  23.9413
 11.5862  33.6584
 11.6668  24.4764
 11.7473  22.8299
 11.8277  22.6849
 11.9083  22.8461
 11.9887  23.1015
 12.0693  23.9046
 12.1498  24.1105
 12.2302  22.7206
 12.3108  22.8395
 12.3913  22.5993
 12.4718  22.7715
 12.5523  22.8206
 12.6328  22.9586
 12.7133  23.0099
 12.7938  23.3029
 12.8742  23.482
 12.9548  23.9118
 13.0353  24.2849
 13.1158  25.0548
 13.1963  25.7366
 13.2768  26.8041
 13.3573  27.928
 13.4378  28.8089
 13.5183  29.6946
 13.5988  30.0753
 13.6793  30.0687
 13.7598  29.9095
 13.8403  30.3563
 13.9208  39.3039
 14.0013  48.3111
 14.0818  28.9355
 14.1623  27.6395
 14.2428  26.9342
 14.3233  26.3584
 14.4038  26.2146
 14.4843  25.7807
 14.5648  25.7051
 14.6453  25.5118
 14.7258  25.5032
 14.8063  25.2227
 14.8868  25.124
 14.9673  24.9797
 15.0478  25.0882
 15.1283  25.4561
 15.2088  28.5894
 15.2892  25.2626
 15.3698  24.7927
 15.4503  24.8787
 15.5308  24.6522
 15.6113  24.5936
 15.6918  24.5929
 15.7723  24.6545
 15.8528  24.713
 15.9332  24.8596
 16.0138  24.7422
 16.0943  24.7831
 16.1748  25.0238
 16.2553  25.7532
 16.3358  25.1426
 16.4163  24.896
 16.4967  24.8266
 16.5773  24.7815
 16.6578  24.6615
 16.7383  24.6308
 16.8188  24.5989
 16.8992  24.5115
 16.9798  24.4853
 17.0603  24.3554
 17.1408  24.2657
 17.2213  24.3294
 17.3017  24.1961
 17.3823  24.2777
 17.4628  24.055
 17.5433  24.0481
 17.6238  23.9443
 17.7042  23.9512
 17.7847  23.9776
 17.8653  23.8908
 17.9458  23.9108
 18.0263  24.5681
 18.1068  25.2158
 18.1872  24.111
 18.2678  23.8342
 18.3483  23.7947
 18.4288  23.5858
 18.5093  23.6765
 18.5897  23.6536
 18.6703  23.6587
 18.7508  23.6344
 18.8313  23.6696
 18.9118  23.6422
 18.9922  23.6065
 19.0727  23.7584
 19.1533  23.6238
 19.2338  23.7115
 19.3143  23.9508
 19.3948  24.0765
 19.4752  23.8428
 19.5558  23.8601
 19.6363  24.4908
 19.7168  27.908
 19.7973  26.1488
 19.8777  28.1852
 19.9582  24.281
 20.0388  23.9533
 20.1193  24.1808
 20.1998  23.7253
 20.2803  23.7428
 20.3607  23.8714
 20.4413  23.7619
 20.5218  23.8193
 20.6023  23.9312
 20.6828  24.3703
 20.7632  26.2301
 20.8438  24.3337
 20.9243  24.1167
 21.0048  24.0523
 21.0853  24.0435
 21.1658  23.9191
 21.2462  23.9414
 21.3268  23.9361
 21.4073  23.9451
 21.4878  24.0881
 21.5683  24.1251
 21.6487  24.2169
 21.7293  24.1989
 21.8098  24.2428
 21.8903  24.157
 21.9708  24.2296
 22.0512  24.3792
 22.1318  24.43
 22.2123  24.2874
 22.2928  24.5812
 22.3733  24.6987
 22.4538  24.7058
 22.5343  24.9537
 22.6148  25.0067
 22.6953  25.2226
 22.7758  25.3595
 22.8563  25.6471
 22.9367  26.1081
 22.9943  26.8489