File: test-data-xrd/xrd-map-34-ID-E/Data_0143.chi
F:\20151113_APS_34IDE\\Brian\Particle1\OCV\Data_0143.tif
2-Theta Angle (Degrees)
Intensity
       2000
 0.07475  0.0000000E+00
 0.15525  0.0000000E+00
 0.23575  0.0000000E+00
 0.31625  0.0000000E+00
 0.39675  0.0000000E+00
 0.47725  0.0000000E+00
 0.55775  0.0000000E+00
 0.63825  0.0000000E+00
 0.71875  0.0000000E+00
 0.79925  0.0000000E+00
 0.87975  0.0000000E+00
 0.96025  0.0000000E+00
 1.04075  0.0000000E+00
 1.12125  0.0000000E+00
 1.20175  0.0000000E+00
 1.28225  0.0000000E+00
 1.36275  0.0000000E+00
 1.44325  0.0000000E+00
 1.52375  0.0000000E+00
 1.60425  0.0000000E+00
 1.68475  0.0000000E+00
 1.76525  0.0000000E+00
 1.84575  0.0000000E+00
 1.92625  0.0000000E+00
 2.00675  0.0000000E+00
 2.08725  0.0000000E+00
 2.16775  0.0000000E+00
 2.24825  0.0000000E+00
 2.32875  0.0000000E+00
 2.40925  0.0000000E+00
 2.48975  0.0000000E+00
 2.57025  0.0000000E+00
 2.65075  0.0000000E+00
 2.73125  0.0000000E+00
 2.81175  0.0000000E+00
 2.89225  34.9548
 2.97275  38.3307
 3.05325  37.3261
 3.13375  35.092
 3.21425  35.2492
 3.29475  35.1124
 3.37525  35.126
 3.45575  34.6859
 3.53625  33.4716
 3.61675  33.2475
 3.69725  33.0388
 3.77775  33.4414
 3.85825  33.5221
 3.93875  33.2703
 4.01925  33.2213
 4.09975  32.6128
 4.18025  32.395
 4.26075  32.8402
 4.34125  32.1178
 4.42175  32.6757
 4.50225  32.9258
 4.58275  32.7148
 4.66325  33.0496
 4.74375  32.5631
 4.82425  33.0309
 4.90475  32.79
 4.98525  32.8302
 5.06575  33.361
 5.14625  33.5663
 5.22675  34.1145
 5.30725  34.276
 5.38775  34.287
 5.46825  35.0721
 5.54875  34.8239
 5.62925  35.2346
 5.70975  35.5149
 5.79025  35.6994
 5.87075  35.8272
 5.95125  36.6512
 6.03175  36.5745
 6.11225  36.7568
 6.19275  36.6641
 6.27325  37.3746
 6.35375  38.3166
 6.43425  38.6484
 6.51475  39.1447
 6.59525  39.9107
 6.67575  40.3687
 6.75625  40.8777
 6.83675  41.5816
 6.91725  42.1336
 6.99775  42.5181
 7.07825  42.6757
 7.15875  43.1707
 7.23925  43.5766
 7.31975  43.8496
 7.40025  44.1094
 7.48075  44.3442
 7.56125  44.4039
 7.64175  44.5268
 7.72225  44.414
 7.80275  44.399
 7.88325  44.0045
 7.96375  44.2715
 8.04425  43.3957
 8.12475  42.9291
 8.20525  42.2057
 8.28575  41.1118
 8.36625  40.1468
 8.44675  39.0506
 8.52725  37.593
 8.60775  36.2167
 8.68825  35.1563
 8.76875  33.9908
 8.84925  33.1191
 8.92975  31.8978
 9.01025  30.5641
 9.09075  29.9
 9.17125  28.9096
 9.25175  28.2932
 9.33225  27.5203
 9.41275  26.7617
 9.49325  26.4772
 9.57375  26.0904
 9.65425  25.5539
 9.73475  25.2534
 9.81525  25.0584
 9.89575  24.6231
 9.97625  24.4929
 10.0567  24.0612
 10.1373  23.7661
 10.2178  23.6469
 10.2982  23.8003
 10.3788  23.3767
 10.4593  23.4539
 10.5397  23.0748
 10.6203  22.983
 10.7007  22.8656
 10.7813  22.8312
 10.8618  22.6856
 10.9422  22.6651
 11.0228  22.4624
 11.1033  22.5513
 11.1837  22.1853
 11.2643  22.1921
 11.3447  22.3014
 11.4253  22.4828
 11.5058  22.2949
 11.5862  23.1074
 11.6668  22.2411
 11.7473  22.1841
 11.8277  22.342
 11.9083  22.4762
 11.9887  22.3263
 12.0693  22.3371
 12.1498  22.3739
 12.2302  22.1956
 12.3108  22.3577
 12.3913  22.355
 12.4718  22.3622
 12.5523  22.4595
 12.6328  22.7459
 12.7133  22.8201
 12.7938  22.9696
 12.8742  23.215
 12.9548  23.7514
 13.0353  24.001
 13.1158  24.7989
 13.1963  25.5755
 13.2768  26.5423
 13.3573  27.6632
 13.4378  28.5481
 13.5183  29.1459
 13.5988  29.7113
 13.6793  29.7031
 13.7598  29.1872
 13.8403  28.7859
 13.9208  28.6421
 14.0013  27.9494
 14.0818  27.133
 14.1623  26.7651
 14.2428  26.3129
 14.3233  25.9729
 14.4038  25.8336
 14.4843  25.5222
 14.5648  25.3518
 14.6453  25.1744
 14.7258  25.1923
 14.8063  24.8094
 14.8868  24.8662
 14.9673  24.6682
 15.0478  24.6968
 15.1283  24.5372
 15.2088  24.6914
 15.2892  24.302
 15.3698  24.2598
 15.4503  24.2668
 15.5308  24.3758
 15.6113  24.3825
 15.6918  24.4113
 15.7723  24.4388
 15.8528  24.4126
 15.9332  24.482
 16.0138  24.6088
 16.0943  24.5328
 16.1748  24.7951
 16.2553  25.0874
 16.3358  24.8378
 16.4163  24.6314
 16.4967  25.119
 16.5773  24.3133
 16.6578  24.3126
 16.7383  24.2299
 16.8188  24.318
 16.8992  24.1656
 16.9798  24.1975
 17.0603  23.9493
 17.1408  24.0059
 17.2213  24.0876
 17.3017  23.7291
 17.3823  23.8731
 17.4628  23.6937
 17.5433  23.6745
 17.6238  23.7414
 17.7042  23.676
 17.7847  23.5065
 17.8653  23.444
 17.9458  23.4588
 18.0263  23.4761
 18.1068  23.6951
 18.1872  23.2979
 18.2678  23.4354
 18.3483  23.3731
 18.4288  23.3758
 18.5093  23.2291
 18.5897  23.3185
 18.6703  23.2369
 18.7508  23.2051
 18.8313  23.325
 18.9118  23.3222
 18.9922  23.2217
 19.0727  23.3645
 19.1533  23.2743
 19.2338  23.241
 19.3143  23.3115
 19.3948  23.3566
 19.4752  23.3124
 19.5558  23.3566
 19.6363  23.3141
 19.7168  23.6223
 19.7973  23.7244
 19.8777  23.6499
 19.9582  23.37
 20.0388  23.4342
 20.1193  23.414
 20.1998  23.3839
 20.2803  23.4911
 20.3607  23.4076
 20.4413  23.4076
 20.5218  23.3906
 20.6023  23.58
 20.6828  23.5109
 20.7632  23.7614
 20.8438  23.5375
 20.9243  23.5191
 21.0048  23.5699
 21.0853  23.4431
 21.1658  23.5024
 21.2462  23.7055
 21.3268  23.577
 21.4073  23.7001
 21.4878  23.6625
 21.5683  23.6155
 21.6487  23.8524
 21.7293  23.84
 21.8098  23.837
 21.8903  23.9466
 21.9708  23.9799
 22.0512  24.0098
 22.1318  24.1651
 22.2123  24.166
 22.2928  24.2402
 22.3733  24.3323
 22.4538  24.4035
 22.5343  24.5872
 22.6148  24.6944
 22.6953  24.9034
 22.7758  24.9878
 22.8563  25.2662
 22.9367  25.6679
 22.9943  25.8973