File: test-data-xrd/xrd-map-34-ID-E/Data_0052.chi
F:\20151113_APS_34IDE\\Brian\Particle1\OCV\Data_0052.tif
2-Theta Angle (Degrees)
Intensity
       2000
 0.07475  0.0000000E+00
 0.15525  0.0000000E+00
 0.23575  0.0000000E+00
 0.31625  0.0000000E+00
 0.39675  0.0000000E+00
 0.47725  0.0000000E+00
 0.55775  0.0000000E+00
 0.63825  0.0000000E+00
 0.71875  0.0000000E+00
 0.79925  0.0000000E+00
 0.87975  0.0000000E+00
 0.96025  0.0000000E+00
 1.04075  0.0000000E+00
 1.12125  0.0000000E+00
 1.20175  0.0000000E+00
 1.28225  0.0000000E+00
 1.36275  0.0000000E+00
 1.44325  0.0000000E+00
 1.52375  0.0000000E+00
 1.60425  0.0000000E+00
 1.68475  0.0000000E+00
 1.76525  0.0000000E+00
 1.84575  0.0000000E+00
 1.92625  0.0000000E+00
 2.00675  0.0000000E+00
 2.08725  0.0000000E+00
 2.16775  0.0000000E+00
 2.24825  0.0000000E+00
 2.32875  0.0000000E+00
 2.40925  0.0000000E+00
 2.48975  0.0000000E+00
 2.57025  0.0000000E+00
 2.65075  0.0000000E+00
 2.73125  0.0000000E+00
 2.81175  0.0000000E+00
 2.89225  36.4492
 2.97275  35.4887
 3.05325  36.1945
 3.13375  35.373
 3.21425  35.3731
 3.29475  34.3899
 3.37525  34.7497
 3.45575  34.5277
 3.53625  33.8766
 3.61675  33.6579
 3.69725  32.7668
 3.77775  32.9076
 3.85825  32.5148
 3.93875  32.59
 4.01925  33.2319
 4.09975  33.0783
 4.18025  32.2405
 4.26075  32.6263
 4.34125  32.4212
 4.42175  32.527
 4.50225  32.5401
 4.58275  32.8691
 4.66325  33.1796
 4.74375  32.2479
 4.82425  32.9034
 4.90475  32.8427
 4.98525  33.0371
 5.06575  33.3585
 5.14625  33.337
 5.22675  34.2093
 5.30725  34.2947
 5.38775  34.4993
 5.46825  34.6377
 5.54875  35.0252
 5.62925  35.2544
 5.70975  35.9172
 5.79025  36.1717
 5.87075  37.2017
 5.95125  48.1223
 6.03175  52.7108
 6.11225  38.1289
 6.19275  37.4602
 6.27325  37.6319
 6.35375  38.4457
 6.43425  38.6342
 6.51475  39.4562
 6.59525  39.5086
 6.67575  40.6424
 6.75625  40.907
 6.83675  41.59
 6.91725  42.1042
 6.99775  42.3505
 7.07825  42.7346
 7.15875  43.2611
 7.23925  43.6305
 7.31975  43.5993
 7.40025  44.1931
 7.48075  44.492
 7.56125  44.2849
 7.64175  44.7112
 7.72225  44.5193
 7.80275  44.4152
 7.88325  44.2028
 7.96375  43.8897
 8.04425  43.6171
 8.12475  42.9461
 8.20525  41.9684
 8.28575  41.1689
 8.36625  40.3435
 8.44675  38.7844
 8.52725  37.8355
 8.60775  36.5554
 8.68825  35.3769
 8.76875  34.2475
 8.84925  33.1283
 8.92975  32.0644
 9.01025  31.16
 9.09075  30.2816
 9.17125  29.4701
 9.25175  28.6151
 9.33225  27.8053
 9.41275  27.1097
 9.49325  26.8408
 9.57375  26.0523
 9.65425  25.7655
 9.73475  25.6338
 9.81525  25.2466
 9.89575  24.9048
 9.97625  24.8084
 10.0567  24.4635
 10.1373  24.3157
 10.2178  24.0799
 10.2982  23.8719
 10.3788  23.6354
 10.4593  23.5746
 10.5397  23.3453
 10.6203  23.393
 10.7007  23.2375
 10.7813  23.0785
 10.8618  23.0544
 10.9422  22.803
 11.0228  22.7806
 11.1033  22.7424
 11.1837  22.6243
 11.2643  22.7649
 11.3447  23.0141
 11.4253  23.3258
 11.5058  23.91
 11.5862  36.1456
 11.6668  24.8287
 11.7473  23.014
 11.8277  22.7589
 11.9083  22.7632
 11.9887  24.7086
 12.0693  24.9996
 12.1498  23.8907
 12.2302  22.8209
 12.3108  22.6872
 12.3913  22.9423
 12.4718  23.0292
 12.5523  22.9943
 12.6328  22.8861
 12.7133  23.223
 12.7938  23.382
 12.8742  23.6355
 12.9548  23.9382
 13.0353  24.377
 13.1158  25.0532
 13.1963  25.853
 13.2768  26.9356
 13.3573  27.897
 13.4378  28.6273
 13.5183  29.5127
 13.5988  29.9911
 13.6793  30.0102
 13.7598  29.9252
 13.8403  30.2346
 13.9208  41.2357
 14.0013  36.2014
 14.0818  28.6468
 14.1623  27.5374
 14.2428  26.9758
 14.3233  26.4285
 14.4038  26.2475
 14.4843  25.9494
 14.5648  25.8522
 14.6453  25.5012
 14.7258  25.4249
 14.8063  25.292
 14.8868  25.0416
 14.9673  25.0928
 15.0478  25.0504
 15.1283  25.3731
 15.2088  26.909
 15.2892  24.9495
 15.3698  24.8623
 15.4503  24.7272
 15.5308  24.8311
 15.6113  24.7781
 15.6918  24.7885
 15.7723  24.812
 15.8528  24.804
 15.9332  24.849
 16.0138  24.9269
 16.0943  24.8752
 16.1748  25.1329
 16.2553  25.6619
 16.3358  25.2731
 16.4163  24.885
 16.4967  24.9405
 16.5773  24.9235
 16.6578  24.7582
 16.7383  24.7191
 16.8188  24.4972
 16.8992  24.5048
 16.9798  24.4766
 17.0603  24.3402
 17.1408  24.3924
 17.2213  24.4145
 17.3017  24.2764
 17.3823  24.1677
 17.4628  24.2028
 17.5433  24.1309
 17.6238  24.0886
 17.7042  24.1172
 17.7847  23.997
 17.8653  24.0111
 17.9458  24.0905
 18.0263  24.566
 18.1068  24.9613
 18.1872  24.1574
 18.2678  23.7461
 18.3483  23.9039
 18.4288  23.7933
 18.5093  23.7419
 18.5897  23.766
 18.6703  23.7181
 18.7508  23.5895
 18.8313  23.5741
 18.9118  23.7398
 18.9922  23.699
 19.0727  23.7999
 19.1533  23.8412
 19.2338  23.7539
 19.3143  23.8276
 19.3948  24.008
 19.4752  23.9528
 19.5558  24.1643
 19.6363  25.2267
 19.7168  32.7444
 19.7973  26.7637
 19.8777  36.4761
 19.9582  24.9424
 20.0388  24.2954
 20.1193  24.1225
 20.1998  24.0363
 20.2803  23.9596
 20.3607  23.8503
 20.4413  23.9843
 20.5218  23.9809
 20.6023  24.1058
 20.6828  24.6699
 20.7632  27.0201
 20.8438  24.4551
 20.9243  24.3939
 21.0048  24.1641
 21.0853  24.1151
 21.1658  24.1696
 21.2462  24.2945
 21.3268  24.0638
 21.4073  24.0782
 21.4878  24.16
 21.5683  24.2354
 21.6487  24.2895
 21.7293  24.2487
 21.8098  24.3992
 21.8903  24.4026
 21.9708  24.3242
 22.0512  24.4532
 22.1318  24.6208
 22.2123  24.5917
 22.2928  24.6889
 22.3733  24.7501
 22.4538  24.9528
 22.5343  25.0769
 22.6148  25.1967
 22.6953  25.3727
 22.7758  25.681
 22.8563  25.887
 22.9367  26.6104
 22.9943  28.3749