File: test-data-xrd/xrd-map-34-ID-E/Data_0124.chi
F:\20151113_APS_34IDE\\Brian\Particle1\OCV\Data_0124.tif
2-Theta Angle (Degrees)
Intensity
       2000
 0.07475  0.0000000E+00
 0.15525  0.0000000E+00
 0.23575  0.0000000E+00
 0.31625  0.0000000E+00
 0.39675  0.0000000E+00
 0.47725  0.0000000E+00
 0.55775  0.0000000E+00
 0.63825  0.0000000E+00
 0.71875  0.0000000E+00
 0.79925  0.0000000E+00
 0.87975  0.0000000E+00
 0.96025  0.0000000E+00
 1.04075  0.0000000E+00
 1.12125  0.0000000E+00
 1.20175  0.0000000E+00
 1.28225  0.0000000E+00
 1.36275  0.0000000E+00
 1.44325  0.0000000E+00
 1.52375  0.0000000E+00
 1.60425  0.0000000E+00
 1.68475  0.0000000E+00
 1.76525  0.0000000E+00
 1.84575  0.0000000E+00
 1.92625  0.0000000E+00
 2.00675  0.0000000E+00
 2.08725  0.0000000E+00
 2.16775  0.0000000E+00
 2.24825  0.0000000E+00
 2.32875  0.0000000E+00
 2.40925  0.0000000E+00
 2.48975  0.0000000E+00
 2.57025  0.0000000E+00
 2.65075  0.0000000E+00
 2.73125  0.0000000E+00
 2.81175  0.0000000E+00
 2.89225  35.0959
 2.97275  34.7148
 3.05325  36.2216
 3.13375  36.0827
 3.21425  35.4992
 3.29475  35.0154
 3.37525  35.0475
 3.45575  33.9627
 3.53625  34.2193
 3.61675  33.3292
 3.69725  33.5068
 3.77775  33.3509
 3.85825  32.7392
 3.93875  32.9296
 4.01925  32.5756
 4.09975  32.3
 4.18025  32.3694
 4.26075  32.1551
 4.34125  32.3012
 4.42175  32.2257
 4.50225  32.5054
 4.58275  32.1144
 4.66325  32.9716
 4.74375  32.6797
 4.82425  32.7495
 4.90475  33.1102
 4.98525  33.0316
 5.06575  33.2683
 5.14625  33.5571
 5.22675  33.9833
 5.30725  34.0935
 5.38775  34.5086
 5.46825  34.8269
 5.54875  34.9287
 5.62925  35.0738
 5.70975  35.7114
 5.79025  35.7707
 5.87075  36.3875
 5.95125  42.9265
 6.03175  41.7451
 6.11225  37.1476
 6.19275  37.2166
 6.27325  37.3793
 6.35375  37.9454
 6.43425  38.4342
 6.51475  39.0383
 6.59525  39.7451
 6.67575  40.4259
 6.75625  40.9922
 6.83675  41.4397
 6.91725  42.1932
 6.99775  42.4163
 7.07825  42.9402
 7.15875  42.9993
 7.23925  43.7862
 7.31975  44.0614
 7.40025  43.9015
 7.48075  44.3921
 7.56125  44.3764
 7.64175  44.5359
 7.72225  44.3389
 7.80275  44.2183
 7.88325  43.9714
 7.96375  43.6683
 8.04425  43.0345
 8.12475  42.9334
 8.20525  41.9497
 8.28575  41.1913
 8.36625  40.1877
 8.44675  38.9399
 8.52725  37.5651
 8.60775  36.2622
 8.68825  35.0956
 8.76875  33.6779
 8.84925  32.7171
 8.92975  31.4513
 9.01025  30.7278
 9.09075  29.771
 9.17125  28.9885
 9.25175  28.1476
 9.33225  27.3152
 9.41275  26.9969
 9.49325  26.4137
 9.57375  25.9463
 9.65425  25.2089
 9.73475  25.1544
 9.81525  24.8744
 9.89575  24.4785
 9.97625  24.2539
 10.0567  24.1367
 10.1373  23.8504
 10.2178  23.6658
 10.2982  23.3882
 10.3788  23.2327
 10.4593  23.2227
 10.5397  22.9996
 10.6203  22.9567
 10.7007  22.9041
 10.7813  22.8853
 10.8618  22.6234
 10.9422  22.7912
 11.0228  22.501
 11.1033  22.4029
 11.1837  22.4478
 11.2643  22.3501
 11.3447  22.258
 11.4253  22.7691
 11.5058  23.2083
 11.5862  33.9698
 11.6668  23.6349
 11.7473  22.5396
 11.8277  22.4401
 11.9083  22.5244
 11.9887  22.7973
 12.0693  23.5102
 12.1498  23.2354
 12.2302  22.4585
 12.3108  22.4771
 12.3913  22.4113
 12.4718  22.3983
 12.5523  22.5239
 12.6328  22.7588
 12.7133  22.7307
 12.7938  22.8889
 12.8742  23.2345
 12.9548  23.6231
 13.0353  24.0144
 13.1158  24.7533
 13.1963  25.6194
 13.2768  26.429
 13.3573  27.4808
 13.4378  28.4056
 13.5183  29.1986
 13.5988  29.5952
 13.6793  29.5707
 13.7598  29.5139
 13.8403  29.1745
 13.9208  31.1305
 14.0013  30.1035
 14.0818  27.4951
 14.1623  26.869
 14.2428  26.2577
 14.3233  26.0078
 14.4038  25.7801
 14.4843  25.4894
 14.5648  25.4138
 14.6453  25.2327
 14.7258  25.0519
 14.8063  24.9691
 14.8868  24.7412
 14.9673  24.6368
 15.0478  24.8004
 15.1283  24.9416
 15.2088  25.4039
 15.2892  24.4746
 15.3698  24.4905
 15.4503  24.4423
 15.5308  24.3755
 15.6113  24.4591
 15.6918  24.2745
 15.7723  24.2775
 15.8528  24.3504
 15.9332  24.5688
 16.0138  24.4509
 16.0943  24.4235
 16.1748  24.8423
 16.2553  27.4373
 16.3358  24.9636
 16.4163  24.8537
 16.4967  24.5378
 16.5773  24.5859
 16.6578  24.4761
 16.7383  24.4021
 16.8188  24.4074
 16.8992  24.3396
 16.9798  24.2116
 17.0603  24.074
 17.1408  24.0586
 17.2213  23.9731
 17.3017  23.9372
 17.3823  23.9423
 17.4628  23.8046
 17.5433  23.8422
 17.6238  23.7342
 17.7042  23.812
 17.7847  23.6201
 17.8653  23.5377
 17.9458  23.7441
 18.0263  23.7615
 18.1068  24.4498
 18.1872  23.6439
 18.2678  23.3947
 18.3483  23.4874
 18.4288  23.4461
 18.5093  23.2383
 18.5897  23.3757
 18.6703  23.4112
 18.7508  23.3512
 18.8313  23.3076
 18.9118  23.3253
 18.9922  23.2437
 19.0727  23.382
 19.1533  23.2635
 19.2338  23.4126
 19.3143  23.4025
 19.3948  23.492
 19.4752  23.5471
 19.5558  23.4333
 19.6363  23.7167
 19.7168  25.0247
 19.7973  24.4679
 19.8777  24.7937
 19.9582  23.7369
 20.0388  23.6878
 20.1193  23.549
 20.1998  23.4657
 20.2803  23.5454
 20.3607  23.5458
 20.4413  23.5522
 20.5218  23.5457
 20.6023  23.7055
 20.6828  23.852
 20.7632  24.6049
 20.8438  23.874
 20.9243  23.8554
 21.0048  23.5682
 21.0853  23.6781
 21.1658  23.6529
 21.2462  23.7037
 21.3268  23.6107
 21.4073  23.7882
 21.4878  23.71
 21.5683  23.7973
 21.6487  23.8573
 21.7293  23.9919
 21.8098  23.9553
 21.8903  24.0032
 21.9708  24.0051
 22.0512  24.1364
 22.1318  24.0721
 22.2123  24.1568
 22.2928  24.2566
 22.3733  24.3472
 22.4538  24.4447
 22.5343  24.5934
 22.6148  24.7098
 22.6953  25.0116
 22.7758  25.0604
 22.8563  25.3849
 22.9367  25.7979
 22.9943  26.2139