File: test-data-xrd/xrd-map-34-ID-E/Data_0026.chi
F:\20151113_APS_34IDE\\Brian\Particle1\OCV\Data_0026.tif
2-Theta Angle (Degrees)
Intensity
       2000
 0.07475  0.0000000E+00
 0.15525  0.0000000E+00
 0.23575  0.0000000E+00
 0.31625  0.0000000E+00
 0.39675  0.0000000E+00
 0.47725  0.0000000E+00
 0.55775  0.0000000E+00
 0.63825  0.0000000E+00
 0.71875  0.0000000E+00
 0.79925  0.0000000E+00
 0.87975  0.0000000E+00
 0.96025  0.0000000E+00
 1.04075  0.0000000E+00
 1.12125  0.0000000E+00
 1.20175  0.0000000E+00
 1.28225  0.0000000E+00
 1.36275  0.0000000E+00
 1.44325  0.0000000E+00
 1.52375  0.0000000E+00
 1.60425  0.0000000E+00
 1.68475  0.0000000E+00
 1.76525  0.0000000E+00
 1.84575  0.0000000E+00
 1.92625  0.0000000E+00
 2.00675  0.0000000E+00
 2.08725  0.0000000E+00
 2.16775  0.0000000E+00
 2.24825  0.0000000E+00
 2.32875  0.0000000E+00
 2.40925  0.0000000E+00
 2.48975  0.0000000E+00
 2.57025  0.0000000E+00
 2.65075  0.0000000E+00
 2.73125  0.0000000E+00
 2.81175  0.0000000E+00
 2.89225  36.0796
 2.97275  36.2519
 3.05325  36.3202
 3.13375  35.4506
 3.21425  35.5474
 3.29475  34.5981
 3.37525  34.8181
 3.45575  34.3505
 3.53625  33.4966
 3.61675  33.8928
 3.69725  32.9183
 3.77775  33.4945
 3.85825  33
 3.93875  32.2647
 4.01925  32.5932
 4.09975  32.5771
 4.18025  32.1827
 4.26075  32.1956
 4.34125  32.4871
 4.42175  32.5793
 4.50225  32.5647
 4.58275  32.296
 4.66325  32.6737
 4.74375  32.6036
 4.82425  32.729
 4.90475  32.9059
 4.98525  33.0032
 5.06575  33.1572
 5.14625  33.4482
 5.22675  33.8902
 5.30725  34.2004
 5.38775  34.339
 5.46825  34.5616
 5.54875  35.1152
 5.62925  35.475
 5.70975  35.9449
 5.79025  35.8769
 5.87075  37.0772
 5.95125  52.081
 6.03175  51.3307
 6.11225  37.8265
 6.19275  37.3397
 6.27325  37.6203
 6.35375  38.1646
 6.43425  38.5591
 6.51475  39.2577
 6.59525  39.8922
 6.67575  40.3982
 6.75625  40.636
 6.83675  41.428
 6.91725  42.4133
 6.99775  42.335
 7.07825  42.627
 7.15875  43.3689
 7.23925  43.587
 7.31975  43.9296
 7.40025  44.3408
 7.48075  44.5545
 7.56125  44.3823
 7.64175  44.5973
 7.72225  44.7168
 7.80275  45.3242
 7.88325  44.2437
 7.96375  44.17
 8.04425  43.5975
 8.12475  43.1697
 8.20525  42.111
 8.28575  41.3931
 8.36625  40.4004
 8.44675  39.227
 8.52725  38.3459
 8.60775  36.7819
 8.68825  35.7978
 8.76875  34.5901
 8.84925  33.4043
 8.92975  32.3325
 9.01025  31.1649
 9.09075  30.3292
 9.17125  29.6614
 9.25175  28.964
 9.33225  28.0895
 9.41275  27.6566
 9.49325  27.0743
 9.57375  26.3731
 9.65425  26.1725
 9.73475  26.0973
 9.81525  25.5458
 9.89575  25.1579
 9.97625  24.91
 10.0567  24.7192
 10.1373  24.4478
 10.2178  24.473
 10.2982  24.1993
 10.3788  23.9422
 10.4593  23.8424
 10.5397  23.5587
 10.6203  23.5898
 10.7007  23.4092
 10.7813  23.2677
 10.8618  23.241
 10.9422  23.2425
 11.0228  23.0927
 11.1033  22.9946
 11.1837  22.975
 11.2643  22.9608
 11.3447  22.9948
 11.4253  23.5144
 11.5058  23.4474
 11.5862  31.2253
 11.6668  24.9304
 11.7473  23.1866
 11.8277  23.0038
 11.9083  23.0528
 11.9887  25.0049
 12.0693  24.6346
 12.1498  24.3289
 12.2302  22.969
 12.3108  22.9781
 12.3913  23.0592
 12.4718  23.0599
 12.5523  23.1341
 12.6328  23.2414
 12.7133  23.3948
 12.7938  23.4977
 12.8742  23.6878
 12.9548  24.2516
 13.0353  24.5828
 13.1158  25.207
 13.1963  26.0855
 13.2768  26.8894
 13.3573  27.9595
 13.4378  28.8987
 13.5183  29.7868
 13.5988  30.2072
 13.6793  30.0957
 13.7598  29.964
 13.8403  29.6776
 13.9208  34.6509
 14.0013  34.1184
 14.0818  28.418
 14.1623  27.4708
 14.2428  27.0062
 14.3233  26.6156
 14.4038  26.4598
 14.4843  26.2196
 14.5648  26.0232
 14.6453  25.6953
 14.7258  25.5579
 14.8063  25.5689
 14.8868  25.3572
 14.9673  25.4276
 15.0478  25.3834
 15.1283  25.5809
 15.2088  27.2948
 15.2892  25.2295
 15.3698  24.9938
 15.4503  25.0923
 15.5308  24.9891
 15.6113  24.906
 15.6918  25.0353
 15.7723  25.0032
 15.8528  24.999
 15.9332  25.0166
 16.0138  24.9562
 16.0943  24.9906
 16.1748  25.1948
 16.2553  26.5547
 16.3358  25.4841
 16.4163  25.1287
 16.4967  25.0759
 16.5773  24.9679
 16.6578  24.8583
 16.7383  24.9393
 16.8188  24.7981
 16.8992  24.6855
 16.9798  24.742
 17.0603  24.5847
 17.1408  24.7474
 17.2213  24.6154
 17.3017  24.4346
 17.3823  24.2673
 17.4628  24.4346
 17.5433  24.3259
 17.6238  24.1997
 17.7042  24.2898
 17.7847  24.2466
 17.8653  24.204
 17.9458  24.4146
 18.0263  25.4586
 18.1068  27.858
 18.1872  24.7356
 18.2678  24.1101
 18.3483  24.079
 18.4288  24.242
 18.5093  23.9657
 18.5897  24.0603
 18.6703  23.9039
 18.7508  23.9077
 18.8313  23.8415
 18.9118  23.9273
 18.9922  23.9525
 19.0727  23.8963
 19.1533  23.9676
 19.2338  23.9929
 19.3143  24.077
 19.3948  23.9715
 19.4752  24.1691
 19.5558  24.2327
 19.6363  24.6802
 19.7168  27.5682
 19.7973  25.911
 19.8777  28.45
 19.9582  24.5744
 20.0388  24.2351
 20.1193  24.102
 20.1998  24.1739
 20.2803  24.1529
 20.3607  24.0425
 20.4413  24.1772
 20.5218  24.08
 20.6023  24.3863
 20.6828  24.5014
 20.7632  26.4573
 20.8438  25.1503
 20.9243  24.4453
 21.0048  24.3345
 21.0853  24.3491
 21.1658  24.278
 21.2462  24.2711
 21.3268  24.2949
 21.4073  24.3358
 21.4878  24.4022
 21.5683  24.4398
 21.6487  24.6093
 21.7293  24.4312
 21.8098  24.4249
 21.8903  24.5307
 21.9708  24.5675
 22.0512  24.6358
 22.1318  24.7583
 22.2123  24.6927
 22.2928  24.7549
 22.3733  24.9516
 22.4538  25.0194
 22.5343  25.1273
 22.6148  25.3166
 22.6953  25.4392
 22.7758  25.5354
 22.8563  25.9913
 22.9367  26.2973
 22.9943  26.7586