File: test-data-xrd/xrd-map-34-ID-E/Data_0034.chi
F:\20151113_APS_34IDE\\Brian\Particle1\OCV\Data_0034.tif
2-Theta Angle (Degrees)
Intensity
       2000
 0.07475  0.0000000E+00
 0.15525  0.0000000E+00
 0.23575  0.0000000E+00
 0.31625  0.0000000E+00
 0.39675  0.0000000E+00
 0.47725  0.0000000E+00
 0.55775  0.0000000E+00
 0.63825  0.0000000E+00
 0.71875  0.0000000E+00
 0.79925  0.0000000E+00
 0.87975  0.0000000E+00
 0.96025  0.0000000E+00
 1.04075  0.0000000E+00
 1.12125  0.0000000E+00
 1.20175  0.0000000E+00
 1.28225  0.0000000E+00
 1.36275  0.0000000E+00
 1.44325  0.0000000E+00
 1.52375  0.0000000E+00
 1.60425  0.0000000E+00
 1.68475  0.0000000E+00
 1.76525  0.0000000E+00
 1.84575  0.0000000E+00
 1.92625  0.0000000E+00
 2.00675  0.0000000E+00
 2.08725  0.0000000E+00
 2.16775  0.0000000E+00
 2.24825  0.0000000E+00
 2.32875  0.0000000E+00
 2.40925  0.0000000E+00
 2.48975  0.0000000E+00
 2.57025  0.0000000E+00
 2.65075  0.0000000E+00
 2.73125  0.0000000E+00
 2.81175  0.0000000E+00
 2.89225  34.6865
 2.97275  36.3214
 3.05325  36.1433
 3.13375  35.3017
 3.21425  35.5877
 3.29475  34.8973
 3.37525  35.8687
 3.45575  34.3804
 3.53625  33.5936
 3.61675  33.2422
 3.69725  33.328
 3.77775  33.6178
 3.85825  32.9153
 3.93875  32.9976
 4.01925  32.9405
 4.09975  32.4475
 4.18025  32.2131
 4.26075  32.7385
 4.34125  32.5857
 4.42175  32.7957
 4.50225  32.5691
 4.58275  32.7074
 4.66325  33.0306
 4.74375  32.5023
 4.82425  32.6403
 4.90475  32.8683
 4.98525  33.0509
 5.06575  33.2768
 5.14625  33.829
 5.22675  33.9862
 5.30725  34.1695
 5.38775  34.53
 5.46825  34.496
 5.54875  35.0132
 5.62925  35.3823
 5.70975  35.3244
 5.79025  35.9617
 5.87075  36.9001
 5.95125  57.2197
 6.03175  52.5967
 6.11225  38.0881
 6.19275  37.5633
 6.27325  37.8824
 6.35375  39.3595
 6.43425  38.5157
 6.51475  39.2766
 6.59525  39.6991
 6.67575  40.2876
 6.75625  40.7199
 6.83675  41.5305
 6.91725  41.978
 6.99775  42.4898
 7.07825  42.7822
 7.15875  43.2485
 7.23925  43.6338
 7.31975  43.7659
 7.40025  44.4876
 7.48075  44.1951
 7.56125  44.5115
 7.64175  44.5803
 7.72225  44.4201
 7.80275  44.6991
 7.88325  44.4693
 7.96375  44.0267
 8.04425  43.5357
 8.12475  43.039
 8.20525  42.1646
 8.28575  41.2761
 8.36625  40.5269
 8.44675  39.1193
 8.52725  37.9583
 8.60775  36.9461
 8.68825  35.475
 8.76875  34.3496
 8.84925  33.1838
 8.92975  32.0808
 9.01025  30.9831
 9.09075  29.9558
 9.17125  29.4676
 9.25175  28.4846
 9.33225  27.7672
 9.41275  27.0411
 9.49325  26.7289
 9.57375  26.3208
 9.65425  25.8845
 9.73475  25.347
 9.81525  25.2838
 9.89575  24.8815
 9.97625  24.5952
 10.0567  24.2988
 10.1373  24.1366
 10.2178  23.952
 10.2982  23.7961
 10.3788  23.5929
 10.4593  23.5056
 10.5397  23.2954
 10.6203  23.217
 10.7007  23.1885
 10.7813  23.2126
 10.8618  22.9419
 10.9422  22.8644
 11.0228  22.7022
 11.1033  22.8032
 11.1837  22.6565
 11.2643  22.7076
 11.3447  22.7979
 11.4253  22.7786
 11.5058  23.2148
 11.5862  28.1769
 11.6668  23.2836
 11.7473  22.6484
 11.8277  22.6482
 11.9083  22.6397
 11.9887  23.9912
 12.0693  23.2773
 12.1498  23.1223
 12.2302  22.7922
 12.3108  22.8228
 12.3913  22.7006
 12.4718  22.7826
 12.5523  22.816
 12.6328  23.0769
 12.7133  23.2007
 12.7938  23.2271
 12.8742  23.5897
 12.9548  24.0154
 13.0353  24.394
 13.1158  25.0063
 13.1963  25.8225
 13.2768  26.6824
 13.3573  27.7989
 13.4378  28.6766
 13.5183  29.5641
 13.5988  29.9658
 13.6793  29.8768
 13.7598  29.596
 13.8403  29.7893
 13.9208  39.3617
 14.0013  35.2666
 14.0818  28.2867
 14.1623  27.4281
 14.2428  26.8616
 14.3233  26.398
 14.4038  26.1365
 14.4843  25.8775
 14.5648  25.6472
 14.6453  25.5752
 14.7258  25.2553
 14.8063  25.0605
 14.8868  24.9986
 14.9673  25.0616
 15.0478  25.0257
 15.1283  25.1806
 15.2088  26.1433
 15.2892  24.9732
 15.3698  24.7081
 15.4503  24.6759
 15.5308  24.577
 15.6113  24.6853
 15.6918  24.7457
 15.7723  24.6561
 15.8528  24.8
 15.9332  24.7202
 16.0138  24.8298
 16.0943  24.9273
 16.1748  25.2075
 16.2553  29.1491
 16.3358  25.3176
 16.4163  24.8962
 16.4967  24.8609
 16.5773  24.8044
 16.6578  24.5935
 16.7383  24.6081
 16.8188  24.5697
 16.8992  24.5768
 16.9798  24.5307
 17.0603  24.3591
 17.1408  24.3014
 17.2213  24.394
 17.3017  24.4241
 17.3823  24.1479
 17.4628  24.2295
 17.5433  24.0708
 17.6238  23.9745
 17.7042  23.956
 17.7847  23.8778
 17.8653  23.9643
 17.9458  23.9041
 18.0263  24.1619
 18.1068  25.269
 18.1872  24.0176
 18.2678  23.6737
 18.3483  23.7337
 18.4288  23.7909
 18.5093  23.652
 18.5897  23.6763
 18.6703  23.5547
 18.7508  23.6073
 18.8313  23.6691
 18.9118  23.5579
 18.9922  23.6492
 19.0727  23.75
 19.1533  23.7468
 19.2338  23.6096
 19.3143  23.643
 19.3948  23.7402
 19.4752  23.7526
 19.5558  23.7424
 19.6363  23.9596
 19.7168  24.8276
 19.7973  24.3914
 19.8777  25.7759
 19.9582  23.9585
 20.0388  23.9361
 20.1193  23.7306
 20.1998  23.7548
 20.2803  23.7461
 20.3607  23.8288
 20.4413  23.9072
 20.5218  23.8567
 20.6023  24.1994
 20.6828  24.3052
 20.7632  25.9464
 20.8438  24.2549
 20.9243  24.1048
 21.0048  24.0689
 21.0853  23.9655
 21.1658  24.0926
 21.2462  24.0663
 21.3268  24.0501
 21.4073  23.9524
 21.4878  24.1351
 21.5683  24.1226
 21.6487  24.1866
 21.7293  24.243
 21.8098  24.395
 21.8903  24.3273
 21.9708  24.2639
 22.0512  24.3249
 22.1318  24.5333
 22.2123  24.4584
 22.2928  24.5849
 22.3733  24.8733
 22.4538  24.7806
 22.5343  24.9391
 22.6148  25.0466
 22.6953  25.3345
 22.7758  25.2682
 22.8563  25.6561
 22.9367  25.929
 22.9943  26.4425