File: test-data-xrd/xrd-map-34-ID-E/Data_0051.chi
F:\20151113_APS_34IDE\\Brian\Particle1\OCV\Data_0051.tif
2-Theta Angle (Degrees)
Intensity
       2000
 0.07475  0.0000000E+00
 0.15525  0.0000000E+00
 0.23575  0.0000000E+00
 0.31625  0.0000000E+00
 0.39675  0.0000000E+00
 0.47725  0.0000000E+00
 0.55775  0.0000000E+00
 0.63825  0.0000000E+00
 0.71875  0.0000000E+00
 0.79925  0.0000000E+00
 0.87975  0.0000000E+00
 0.96025  0.0000000E+00
 1.04075  0.0000000E+00
 1.12125  0.0000000E+00
 1.20175  0.0000000E+00
 1.28225  0.0000000E+00
 1.36275  0.0000000E+00
 1.44325  0.0000000E+00
 1.52375  0.0000000E+00
 1.60425  0.0000000E+00
 1.68475  0.0000000E+00
 1.76525  0.0000000E+00
 1.84575  0.0000000E+00
 1.92625  0.0000000E+00
 2.00675  0.0000000E+00
 2.08725  0.0000000E+00
 2.16775  0.0000000E+00
 2.24825  0.0000000E+00
 2.32875  0.0000000E+00
 2.40925  0.0000000E+00
 2.48975  0.0000000E+00
 2.57025  0.0000000E+00
 2.65075  0.0000000E+00
 2.73125  0.0000000E+00
 2.81175  0.0000000E+00
 2.89225  33.9565
 2.97275  35.1768
 3.05325  36.4918
 3.13375  35.1707
 3.21425  34.997
 3.29475  34.2568
 3.37525  34.6129
 3.45575  33.9298
 3.53625  33.3612
 3.61675  32.6344
 3.69725  32.4884
 3.77775  33.0242
 3.85825  32.4781
 3.93875  32.0974
 4.01925  32.2914
 4.09975  32.4108
 4.18025  31.8413
 4.26075  32.0567
 4.34125  32.3874
 4.42175  32.497
 4.50225  32.3667
 4.58275  32.3404
 4.66325  32.6952
 4.74375  32.6182
 4.82425  32.2468
 4.90475  32.5411
 4.98525  32.5296
 5.06575  33.1228
 5.14625  33.4111
 5.22675  33.8312
 5.30725  33.8643
 5.38775  34.6159
 5.46825  34.7461
 5.54875  34.7926
 5.62925  35.1437
 5.70975  35.6218
 5.79025  35.9138
 5.87075  36.6919
 5.95125  47.5207
 6.03175  45.4758
 6.11225  37.2629
 6.19275  36.7501
 6.27325  37.5676
 6.35375  37.5286
 6.43425  38.4747
 6.51475  38.941
 6.59525  39.4006
 6.67575  39.8085
 6.75625  40.4118
 6.83675  41.3063
 6.91725  42.0945
 6.99775  41.9612
 7.07825  42.6153
 7.15875  43.1685
 7.23925  43.4958
 7.31975  43.5938
 7.40025  44.1021
 7.48075  44.3316
 7.56125  44.4163
 7.64175  44.3939
 7.72225  44.035
 7.80275  43.8355
 7.88325  43.5893
 7.96375  43.4135
 8.04425  42.9002
 8.12475  42.4576
 8.20525  41.7198
 8.28575  40.9071
 8.36625  39.9505
 8.44675  38.7493
 8.52725  37.5967
 8.60775  36.0256
 8.68825  35.0629
 8.76875  33.5808
 8.84925  32.5015
 8.92975  31.5661
 9.01025  30.5361
 9.09075  29.6719
 9.17125  28.8714
 9.25175  28.0035
 9.33225  27.5315
 9.41275  26.9234
 9.49325  26.4359
 9.57375  25.8612
 9.65425  25.6565
 9.73475  25.1023
 9.81525  24.8472
 9.89575  24.6377
 9.97625  24.344
 10.0567  24.0622
 10.1373  23.9464
 10.2178  23.66
 10.2982  23.4985
 10.3788  23.3907
 10.4593  23.3949
 10.5397  23.1924
 10.6203  23.156
 10.7007  23.1993
 10.7813  22.8675
 10.8618  22.8483
 10.9422  22.8405
 11.0228  22.6346
 11.1033  22.64
 11.1837  22.547
 11.2643  22.345
 11.3447  22.5868
 11.4253  23.0999
 11.5058  23.1398
 11.5862  29.8266
 11.6668  23.7139
 11.7473  22.6118
 11.8277  22.658
 11.9083  22.6622
 11.9887  24.6708
 12.0693  25.2697
 12.1498  24.3499
 12.2302  22.6764
 12.3108  22.7152
 12.3913  22.7054
 12.4718  22.7718
 12.5523  22.8652
 12.6328  22.9312
 12.7133  22.8774
 12.7938  23.0487
 12.8742  23.3538
 12.9548  23.6628
 13.0353  24.0388
 13.1158  24.9284
 13.1963  25.5744
 13.2768  26.6385
 13.3573  27.6661
 13.4378  28.5157
 13.5183  29.2821
 13.5988  29.8175
 13.6793  29.9389
 13.7598  29.6778
 13.8403  29.7698
 13.9208  39.7347
 14.0013  35.5186
 14.0818  28.2049
 14.1623  27.1797
 14.2428  26.7155
 14.3233  26.294
 14.4038  26.0914
 14.4843  25.6123
 14.5648  25.5821
 14.6453  25.3008
 14.7258  25.1911
 14.8063  24.9673
 14.8868  24.9193
 14.9673  24.8006
 15.0478  24.9402
 15.1283  25.4924
 15.2088  28.6874
 15.2892  25.1577
 15.3698  24.603
 15.4503  24.4971
 15.5308  24.523
 15.6113  24.4901
 15.6918  24.7706
 15.7723  24.6314
 15.8528  24.5461
 15.9332  24.9381
 16.0138  24.7391
 16.0943  24.5587
 16.1748  24.6789
 16.2553  25.6859
 16.3358  25.0985
 16.4163  24.9188
 16.4967  24.7054
 16.5773  24.6502
 16.6578  24.5662
 16.7383  24.6493
 16.8188  24.4094
 16.8992  24.4017
 16.9798  24.3769
 17.0603  24.1874
 17.1408  24.145
 17.2213  24.1043
 17.3017  24.0967
 17.3823  24.0829
 17.4628  23.881
 17.5433  23.9158
 17.6238  23.879
 17.7042  23.8694
 17.7847  23.7063
 17.8653  23.7656
 17.9458  23.7726
 18.0263  24.2376
 18.1068  25.2532
 18.1872  23.9816
 18.2678  23.7036
 18.3483  23.5853
 18.4288  23.6605
 18.5093  23.6618
 18.5897  23.5851
 18.6703  23.5395
 18.7508  23.5813
 18.8313  23.5021
 18.9118  23.6263
 18.9922  23.5232
 19.0727  23.5701
 19.1533  23.4716
 19.2338  23.5162
 19.3143  23.6344
 19.3948  23.7326
 19.4752  23.8068
 19.5558  23.9114
 19.6363  25.0462
 19.7168  29.6442
 19.7973  25.3589
 19.8777  28.8359
 19.9582  24.3578
 20.0388  23.8899
 20.1193  23.8624
 20.1998  23.7721
 20.2803  23.7062
 20.3607  23.8177
 20.4413  23.9049
 20.5218  23.8848
 20.6023  23.9813
 20.6828  24.619
 20.7632  28.2175
 20.8438  24.6548
 20.9243  24.2144
 21.0048  24.0499
 21.0853  24.0571
 21.1658  23.9144
 21.2462  23.9509
 21.3268  23.871
 21.4073  23.9194
 21.4878  24.0109
 21.5683  24.0388
 21.6487  24.1024
 21.7293  24.0898
 21.8098  24.2528
 21.8903  24.2035
 21.9708  24.2478
 22.0512  24.2725
 22.1318  24.3432
 22.2123  24.3336
 22.2928  24.4683
 22.3733  24.5709
 22.4538  24.6674
 22.5343  25.0058
 22.6148  24.9786
 22.6953  25.0952
 22.7758  25.2919
 22.8563  25.5844
 22.9367  26.2361
 22.9943  26.8071