File: test-data-xrd/xrd-map-34-ID-E/Data_0129.chi
F:\20151113_APS_34IDE\\Brian\Particle1\OCV\Data_0129.tif
2-Theta Angle (Degrees)
Intensity
       2000
 0.07475  0.0000000E+00
 0.15525  0.0000000E+00
 0.23575  0.0000000E+00
 0.31625  0.0000000E+00
 0.39675  0.0000000E+00
 0.47725  0.0000000E+00
 0.55775  0.0000000E+00
 0.63825  0.0000000E+00
 0.71875  0.0000000E+00
 0.79925  0.0000000E+00
 0.87975  0.0000000E+00
 0.96025  0.0000000E+00
 1.04075  0.0000000E+00
 1.12125  0.0000000E+00
 1.20175  0.0000000E+00
 1.28225  0.0000000E+00
 1.36275  0.0000000E+00
 1.44325  0.0000000E+00
 1.52375  0.0000000E+00
 1.60425  0.0000000E+00
 1.68475  0.0000000E+00
 1.76525  0.0000000E+00
 1.84575  0.0000000E+00
 1.92625  0.0000000E+00
 2.00675  0.0000000E+00
 2.08725  0.0000000E+00
 2.16775  0.0000000E+00
 2.24825  0.0000000E+00
 2.32875  0.0000000E+00
 2.40925  0.0000000E+00
 2.48975  0.0000000E+00
 2.57025  0.0000000E+00
 2.65075  0.0000000E+00
 2.73125  0.0000000E+00
 2.81175  0.0000000E+00
 2.89225  35.2924
 2.97275  35.9783
 3.05325  36.3342
 3.13375  35.5115
 3.21425  35.9931
 3.29475  33.5698
 3.37525  34.7735
 3.45575  34.4544
 3.53625  34.3933
 3.61675  33.649
 3.69725  33.2617
 3.77775  33.212
 3.85825  32.9174
 3.93875  32.7033
 4.01925  32.9426
 4.09975  32.5761
 4.18025  32.2304
 4.26075  32.2524
 4.34125  32.0836
 4.42175  32.4068
 4.50225  32.5259
 4.58275  32.3616
 4.66325  33.2743
 4.74375  32.5706
 4.82425  32.566
 4.90475  32.83
 4.98525  32.7571
 5.06575  33.3718
 5.14625  33.3162
 5.22675  33.8256
 5.30725  33.9693
 5.38775  34.0494
 5.46825  34.5543
 5.54875  34.88
 5.62925  34.8458
 5.70975  35.057
 5.79025  35.4391
 5.87075  35.7312
 5.95125  37.333
 6.03175  37.2754
 6.11225  36.9169
 6.19275  36.7137
 6.27325  37.3957
 6.35375  38.0045
 6.43425  38.3166
 6.51475  38.8296
 6.59525  39.3512
 6.67575  40.1573
 6.75625  40.7438
 6.83675  41.2989
 6.91725  41.6539
 6.99775  42.3944
 7.07825  42.7887
 7.15875  43.1407
 7.23925  43.2079
 7.31975  43.5021
 7.40025  43.863
 7.48075  44.2155
 7.56125  43.8794
 7.64175  43.9156
 7.72225  44.1986
 7.80275  44.1797
 7.88325  44.0562
 7.96375  43.581
 8.04425  43.2486
 8.12475  42.7696
 8.20525  41.786
 8.28575  40.6686
 8.36625  39.6906
 8.44675  38.903
 8.52725  37.4775
 8.60775  36.0998
 8.68825  35.0966
 8.76875  33.8636
 8.84925  32.7785
 8.92975  31.5984
 9.01025  30.4078
 9.09075  29.7276
 9.17125  29.1186
 9.25175  28.1249
 9.33225  27.213
 9.41275  26.8632
 9.49325  26.3827
 9.57375  25.8002
 9.65425  25.3283
 9.73475  25.2684
 9.81525  24.8547
 9.89575  24.4594
 9.97625  24.0967
 10.0567  24.0669
 10.1373  23.7416
 10.2178  23.6002
 10.2982  23.3214
 10.3788  23.1876
 10.4593  22.9943
 10.5397  22.9256
 10.6203  22.7377
 10.7007  22.7181
 10.7813  22.8838
 10.8618  22.5171
 10.9422  22.5066
 11.0228  22.4315
 11.1033  22.2588
 11.1837  22.2548
 11.2643  22.2816
 11.3447  22.3337
 11.4253  22.4975
 11.5058  22.3144
 11.5862  23.1965
 11.6668  22.3046
 11.7473  22.1236
 11.8277  22.1794
 11.9083  22.1335
 11.9887  22.5723
 12.0693  22.4955
 12.1498  22.4258
 12.2302  22.2649
 12.3108  22.1314
 12.3913  22.3497
 12.4718  22.3764
 12.5523  22.3508
 12.6328  22.6852
 12.7133  22.6452
 12.7938  22.7287
 12.8742  23.1423
 12.9548  23.4388
 13.0353  23.9033
 13.1158  24.6881
 13.1963  25.4216
 13.2768  26.3545
 13.3573  27.3394
 13.4378  28.3132
 13.5183  29.1083
 13.5988  29.2913
 13.6793  29.5566
 13.7598  29.0606
 13.8403  28.7026
 13.9208  29.4453
 14.0013  29.7278
 14.0818  27.2103
 14.1623  26.6475
 14.2428  26.4005
 14.3233  25.9591
 14.4038  25.7644
 14.4843  25.3963
 14.5648  25.1058
 14.6453  25.0376
 14.7258  24.7719
 14.8063  24.7962
 14.8868  24.702
 14.9673  24.5852
 15.0478  24.5908
 15.1283  24.533
 15.2088  24.8929
 15.2892  24.3856
 15.3698  24.3458
 15.4503  24.4326
 15.5308  24.2482
 15.6113  24.3253
 15.6918  24.2218
 15.7723  24.2724
 15.8528  24.2927
 15.9332  24.4822
 16.0138  24.478
 16.0943  24.4263
 16.1748  24.5272
 16.2553  25.2661
 16.3358  24.6234
 16.4163  24.4302
 16.4967  24.5061
 16.5773  24.3546
 16.6578  24.3474
 16.7383  24.2675
 16.8188  24.1755
 16.8992  24.0362
 16.9798  23.9304
 17.0603  23.9182
 17.1408  23.8865
 17.2213  23.8316
 17.3017  23.7953
 17.3823  23.8392
 17.4628  23.7927
 17.5433  23.7159
 17.6238  23.5099
 17.7042  23.5416
 17.7847  23.5121
 17.8653  23.4532
 17.9458  23.3933
 18.0263  23.5577
 18.1068  23.6438
 18.1872  23.3394
 18.2678  23.298
 18.3483  23.2548
 18.4288  23.3233
 18.5093  23.3144
 18.5897  23.2838
 18.6703  23.2074
 18.7508  23.2545
 18.8313  23.2705
 18.9118  23.1363
 18.9922  23.1441
 19.0727  23.2038
 19.1533  23.3648
 19.2338  23.2352
 19.3143  23.3174
 19.3948  23.3226
 19.4752  23.2353
 19.5558  23.3603
 19.6363  23.3704
 19.7168  23.8771
 19.7973  23.7031
 19.8777  24.0757
 19.9582  23.3998
 20.0388  23.3025
 20.1193  23.4617
 20.1998  23.4136
 20.2803  23.2345
 20.3607  23.3271
 20.4413  23.5233
 20.5218  23.3991
 20.6023  23.4622
 20.6828  23.5546
 20.7632  23.9857
 20.8438  23.6502
 20.9243  23.6308
 21.0048  23.5939
 21.0853  23.5475
 21.1658  23.4907
 21.2462  23.6105
 21.3268  23.6072
 21.4073  23.6965
 21.4878  23.8044
 21.5683  23.6566
 21.6487  23.8813
 21.7293  23.8037
 21.8098  23.7424
 21.8903  23.7707
 21.9708  23.8961
 22.0512  23.939
 22.1318  24.0417
 22.2123  24.0251
 22.2928  24.1472
 22.3733  24.2523
 22.4538  24.3502
 22.5343  24.4735
 22.6148  24.6095
 22.6953  24.8521
 22.7758  25.009
 22.8563  25.2244
 22.9367  25.566
 22.9943  25.9809