File: test-data-xrd/xrd-map-34-ID-E/Data_0025.chi
F:\20151113_APS_34IDE\\Brian\Particle1\OCV\Data_0025.tif
2-Theta Angle (Degrees)
Intensity
       2000
 0.07475  0.0000000E+00
 0.15525  0.0000000E+00
 0.23575  0.0000000E+00
 0.31625  0.0000000E+00
 0.39675  0.0000000E+00
 0.47725  0.0000000E+00
 0.55775  0.0000000E+00
 0.63825  0.0000000E+00
 0.71875  0.0000000E+00
 0.79925  0.0000000E+00
 0.87975  0.0000000E+00
 0.96025  0.0000000E+00
 1.04075  0.0000000E+00
 1.12125  0.0000000E+00
 1.20175  0.0000000E+00
 1.28225  0.0000000E+00
 1.36275  0.0000000E+00
 1.44325  0.0000000E+00
 1.52375  0.0000000E+00
 1.60425  0.0000000E+00
 1.68475  0.0000000E+00
 1.76525  0.0000000E+00
 1.84575  0.0000000E+00
 1.92625  0.0000000E+00
 2.00675  0.0000000E+00
 2.08725  0.0000000E+00
 2.16775  0.0000000E+00
 2.24825  0.0000000E+00
 2.32875  0.0000000E+00
 2.40925  0.0000000E+00
 2.48975  0.0000000E+00
 2.57025  0.0000000E+00
 2.65075  0.0000000E+00
 2.73125  0.0000000E+00
 2.81175  0.0000000E+00
 2.89225  35.3737
 2.97275  35.7252
 3.05325  35.3211
 3.13375  36.4516
 3.21425  35.5936
 3.29475  34.075
 3.37525  35.7924
 3.45575  34.4142
 3.53625  34.6199
 3.61675  33.5086
 3.69725  33.4345
 3.77775  33.7744
 3.85825  32.8668
 3.93875  33.1525
 4.01925  32.7563
 4.09975  32.4002
 4.18025  31.7303
 4.26075  31.9553
 4.34125  32.2729
 4.42175  32.8562
 4.50225  32.7156
 4.58275  33.0846
 4.66325  32.831
 4.74375  32.9547
 4.82425  32.5073
 4.90475  32.8656
 4.98525  33.0548
 5.06575  33.4017
 5.14625  33.5697
 5.22675  34.2395
 5.30725  34.2341
 5.38775  34.3871
 5.46825  34.9813
 5.54875  34.9788
 5.62925  35.6268
 5.70975  35.9456
 5.79025  36.0304
 5.87075  36.7223
 5.95125  43.0697
 6.03175  41.2585
 6.11225  37.1246
 6.19275  37.4512
 6.27325  37.5523
 6.35375  38.1452
 6.43425  38.6194
 6.51475  39.4043
 6.59525  39.8485
 6.67575  40.6691
 6.75625  41.1139
 6.83675  41.9675
 6.91725  42.1791
 6.99775  42.399
 7.07825  42.9654
 7.15875  43.2912
 7.23925  43.837
 7.31975  44.04
 7.40025  44.3462
 7.48075  44.776
 7.56125  44.6585
 7.64175  44.7021
 7.72225  44.7384
 7.80275  44.789
 7.88325  44.3242
 7.96375  44.0215
 8.04425  43.7214
 8.12475  43.1438
 8.20525  42.1728
 8.28575  41.2301
 8.36625  40.5675
 8.44675  39.4587
 8.52725  38.0642
 8.60775  36.8735
 8.68825  35.491
 8.76875  34.4583
 8.84925  33.4255
 8.92975  32.1037
 9.01025  31.0987
 9.09075  30.2853
 9.17125  29.5782
 9.25175  28.4387
 9.33225  27.8594
 9.41275  27.4192
 9.49325  27.0256
 9.57375  26.3301
 9.65425  26.0085
 9.73475  25.6903
 9.81525  25.5547
 9.89575  25.0186
 9.97625  24.8336
 10.0567  24.6223
 10.1373  24.4037
 10.2178  24.1813
 10.2982  23.9906
 10.3788  23.6691
 10.4593  23.7176
 10.5397  23.6068
 10.6203  23.5694
 10.7007  23.433
 10.7813  23.3552
 10.8618  23.1368
 10.9422  23.0446
 11.0228  23.0288
 11.1033  22.9483
 11.1837  23.0167
 11.2643  22.8219
 11.3447  22.8838
 11.4253  23.3369
 11.5058  24.2558
 11.5862  36.2126
 11.6668  24.5578
 11.7473  22.9634
 11.8277  23.0205
 11.9083  23.0847
 11.9887  24.4526
 12.0693  25.3304
 12.1498  24.3217
 12.2302  22.8969
 12.3108  22.8095
 12.3913  22.9989
 12.4718  23.0529
 12.5523  23.2108
 12.6328  23.2183
 12.7133  23.3165
 12.7938  23.5571
 12.8742  23.6205
 12.9548  24.1476
 13.0353  24.5701
 13.1158  25.3629
 13.1963  25.9982
 13.2768  26.9247
 13.3573  28.1355
 13.4378  28.7788
 13.5183  29.7395
 13.5988  30.2027
 13.6793  30.1429
 13.7598  29.8965
 13.8403  30.0655
 13.9208  37.8488
 14.0013  38.7264
 14.0818  28.6649
 14.1623  27.6703
 14.2428  26.9225
 14.3233  26.6671
 14.4038  26.3382
 14.4843  26.0059
 14.5648  25.8632
 14.6453  25.5217
 14.7258  25.5438
 14.8063  25.4879
 14.8868  25.1614
 14.9673  25.3168
 15.0478  25.3835
 15.1283  26.059
 15.2088  32.825
 15.2892  25.4862
 15.3698  25.0047
 15.4503  24.8788
 15.5308  24.925
 15.6113  24.8102
 15.6918  24.9498
 15.7723  25.0367
 15.8528  24.834
 15.9332  24.9252
 16.0138  24.9099
 16.0943  25.1777
 16.1748  25.2503
 16.2553  27.0557
 16.3358  25.3283
 16.4163  25.0099
 16.4967  24.9897
 16.5773  24.9998
 16.6578  24.7859
 16.7383  24.8809
 16.8188  24.616
 16.8992  24.6561
 16.9798  24.6551
 17.0603  24.5601
 17.1408  24.5016
 17.2213  24.5548
 17.3017  24.3414
 17.3823  24.3165
 17.4628  24.3059
 17.5433  24.2256
 17.6238  24.1936
 17.7042  24.0917
 17.7847  24.1513
 17.8653  24.2487
 17.9458  24.1899
 18.0263  24.7969
 18.1068  26.0949
 18.1872  24.432
 18.2678  23.9186
 18.3483  24.0245
 18.4288  23.8304
 18.5093  23.857
 18.5897  23.847
 18.6703  23.7664
 18.7508  23.8601
 18.8313  23.8541
 18.9118  23.7644
 18.9922  23.8494
 19.0727  23.7218
 19.1533  23.9216
 19.2338  23.7334
 19.3143  23.8948
 19.3948  23.9839
 19.4752  24.1555
 19.5558  24.2522
 19.6363  25.2304
 19.7168  29.2656
 19.7973  27.1052
 19.8777  28.2721
 19.9582  24.4438
 20.0388  24.1911
 20.1193  24.1642
 20.1998  24.0132
 20.2803  24.0234
 20.3607  24.0107
 20.4413  24.1564
 20.5218  24.1887
 20.6023  24.2608
 20.6828  24.6525
 20.7632  26.9787
 20.8438  25.0303
 20.9243  24.297
 21.0048  24.3257
 21.0853  24.3411
 21.1658  24.216
 21.2462  24.2474
 21.3268  24.1655
 21.4073  24.2401
 21.4878  24.2171
 21.5683  24.3219
 21.6487  24.3488
 21.7293  24.3704
 21.8098  24.364
 21.8903  24.4007
 21.9708  24.3899
 22.0512  24.4799
 22.1318  24.6279
 22.2123  24.6152
 22.2928  24.6664
 22.3733  24.7556
 22.4538  24.8766
 22.5343  25.0289
 22.6148  25.278
 22.6953  25.4448
 22.7758  25.6119
 22.8563  25.7702
 22.9367  26.1995
 22.9943  26.5211