File: test-data-xrd/xrd-map-34-ID-E/Data_0133.chi
F:\20151113_APS_34IDE\\Brian\Particle1\OCV\Data_0133.tif
2-Theta Angle (Degrees)
Intensity
       2000
 0.07475  0.0000000E+00
 0.15525  0.0000000E+00
 0.23575  0.0000000E+00
 0.31625  0.0000000E+00
 0.39675  0.0000000E+00
 0.47725  0.0000000E+00
 0.55775  0.0000000E+00
 0.63825  0.0000000E+00
 0.71875  0.0000000E+00
 0.79925  0.0000000E+00
 0.87975  0.0000000E+00
 0.96025  0.0000000E+00
 1.04075  0.0000000E+00
 1.12125  0.0000000E+00
 1.20175  0.0000000E+00
 1.28225  0.0000000E+00
 1.36275  0.0000000E+00
 1.44325  0.0000000E+00
 1.52375  0.0000000E+00
 1.60425  0.0000000E+00
 1.68475  0.0000000E+00
 1.76525  0.0000000E+00
 1.84575  0.0000000E+00
 1.92625  0.0000000E+00
 2.00675  0.0000000E+00
 2.08725  0.0000000E+00
 2.16775  0.0000000E+00
 2.24825  0.0000000E+00
 2.32875  0.0000000E+00
 2.40925  0.0000000E+00
 2.48975  0.0000000E+00
 2.57025  0.0000000E+00
 2.65075  0.0000000E+00
 2.73125  0.0000000E+00
 2.81175  0.0000000E+00
 2.89225  33.834
 2.97275  35.5341
 3.05325  35.115
 3.13375  35.4939
 3.21425  35.7314
 3.29475  36.1197
 3.37525  35.0906
 3.45575  35.0527
 3.53625  34.5781
 3.61675  33.6061
 3.69725  33.74
 3.77775  33.3415
 3.85825  33.1951
 3.93875  32.7497
 4.01925  33.0928
 4.09975  32.7488
 4.18025  32.1474
 4.26075  31.9347
 4.34125  32.6991
 4.42175  32.4632
 4.50225  32.545
 4.58275  32.6021
 4.66325  32.9832
 4.74375  33.1454
 4.82425  32.6666
 4.90475  33.2429
 4.98525  33.0148
 5.06575  33.445
 5.14625  33.7185
 5.22675  34.2
 5.30725  33.9143
 5.38775  34.7832
 5.46825  34.8463
 5.54875  34.9535
 5.62925  35.2421
 5.70975  35.376
 5.79025  35.5242
 5.87075  35.7745
 5.95125  37.7874
 6.03175  38.784
 6.11225  36.9225
 6.19275  36.8464
 6.27325  37.6363
 6.35375  37.9437
 6.43425  38.4594
 6.51475  39.4402
 6.59525  39.8067
 6.67575  40.4311
 6.75625  41.0859
 6.83675  41.4008
 6.91725  42.0056
 6.99775  42.4581
 7.07825  42.668
 7.15875  43.6667
 7.23925  43.5792
 7.31975  43.9301
 7.40025  44.4128
 7.48075  44.9018
 7.56125  44.5768
 7.64175  44.6643
 7.72225  44.7541
 7.80275  44.3679
 7.88325  43.98
 7.96375  44.1399
 8.04425  43.2988
 8.12475  43.1406
 8.20525  42.1108
 8.28575  41.1703
 8.36625  39.9992
 8.44675  38.8552
 8.52725  37.5387
 8.60775  36.4086
 8.68825  35.3237
 8.76875  34.1162
 8.84925  32.8447
 8.92975  31.8613
 9.01025  30.8878
 9.09075  29.9458
 9.17125  29.2456
 9.25175  28.2349
 9.33225  27.6265
 9.41275  27.0206
 9.49325  26.69
 9.57375  26.2393
 9.65425  25.5123
 9.73475  25.3399
 9.81525  25.0384
 9.89575  24.745
 9.97625  24.5207
 10.0567  24.3091
 10.1373  24.1101
 10.2178  23.8223
 10.2982  23.6224
 10.3788  23.3419
 10.4593  23.2599
 10.5397  23.1991
 10.6203  23.0861
 10.7007  22.8587
 10.7813  22.8685
 10.8618  22.6774
 10.9422  22.6772
 11.0228  22.4558
 11.1033  22.5933
 11.1837  22.5851
 11.2643  22.5025
 11.3447  22.2818
 11.4253  22.5601
 11.5058  22.3639
 11.5862  23.2236
 11.6668  22.4965
 11.7473  22.3918
 11.8277  22.389
 11.9083  22.4837
 11.9887  22.7244
 12.0693  22.767
 12.1498  22.6769
 12.2302  22.3724
 12.3108  22.9858
 12.3913  22.7119
 12.4718  22.5121
 12.5523  22.788
 12.6328  22.8241
 12.7133  22.8938
 12.7938  23.0212
 12.8742  23.2124
 12.9548  23.7098
 13.0353  24.214
 13.1158  24.982
 13.1963  25.8124
 13.2768  26.7726
 13.3573  27.5676
 13.4378  28.6383
 13.5183  29.3788
 13.5988  29.8526
 13.6793  29.6609
 13.7598  29.1627
 13.8403  28.8725
 13.9208  28.7817
 14.0013  28.283
 14.0818  27.2247
 14.1623  26.8488
 14.2428  26.4874
 14.3233  26.0625
 14.4038  25.8473
 14.4843  25.6542
 14.5648  25.4718
 14.6453  25.1739
 14.7258  25.2062
 14.8063  25.5194
 14.8868  24.8095
 14.9673  24.6576
 15.0478  24.7079
 15.1283  24.6034
 15.2088  24.7057
 15.2892  24.4897
 15.3698  24.4126
 15.4503  24.4929
 15.5308  24.4061
 15.6113  24.3857
 15.6918  24.4473
 15.7723  24.5055
 15.8528  24.5315
 15.9332  24.4225
 16.0138  24.6428
 16.0943  24.6509
 16.1748  24.9062
 16.2553  30.6114
 16.3358  25.2139
 16.4163  24.6899
 16.4967  24.6577
 16.5773  24.5675
 16.6578  24.3884
 16.7383  24.4145
 16.8188  24.345
 16.8992  24.3907
 16.9798  24.2327
 17.0603  24.2471
 17.1408  24.2498
 17.2213  24.2281
 17.3017  24.1355
 17.3823  23.9313
 17.4628  23.9279
 17.5433  23.6978
 17.6238  23.7154
 17.7042  23.7057
 17.7847  23.6119
 17.8653  23.5699
 17.9458  23.6485
 18.0263  23.6116
 18.1068  23.8472
 18.1872  23.4739
 18.2678  23.4719
 18.3483  23.4749
 18.4288  23.4704
 18.5093  23.3876
 18.5897  23.4428
 18.6703  23.3631
 18.7508  23.3438
 18.8313  23.2733
 18.9118  23.3259
 18.9922  23.3824
 19.0727  23.4637
 19.1533  23.4036
 19.2338  23.4789
 19.3143  23.3497
 19.3948  23.5128
 19.4752  23.4647
 19.5558  23.5548
 19.6363  23.5802
 19.7168  23.9725
 19.7973  23.8009
 19.8777  24.0301
 19.9582  23.5649
 20.0388  23.5798
 20.1193  23.5553
 20.1998  23.5082
 20.2803  23.4877
 20.3607  23.5405
 20.4413  23.565
 20.5218  23.5819
 20.6023  23.6931
 20.6828  23.7481
 20.7632  24.174
 20.8438  23.7557
 20.9243  23.733
 21.0048  23.7132
 21.0853  23.7907
 21.1658  23.752
 21.2462  23.7203
 21.3268  23.7317
 21.4073  23.8313
 21.4878  23.9267
 21.5683  24.0223
 21.6487  23.9701
 21.7293  23.9874
 21.8098  24.0676
 21.8903  24.064
 21.9708  24.0785
 22.0512  24.1369
 22.1318  24.2194
 22.2123  24.3657
 22.2928  24.2385
 22.3733  24.3958
 22.4538  24.5857
 22.5343  24.8005
 22.6148  24.8155
 22.6953  24.9356
 22.7758  25.1401
 22.8563  25.3855
 22.9367  25.6734
 22.9943  25.9392