File: test-data-xrd/xrd-map-34-ID-E/Data_0137.chi
F:\20151113_APS_34IDE\\Brian\Particle1\OCV\Data_0137.tif
2-Theta Angle (Degrees)
Intensity
       2000
 0.07475  0.0000000E+00
 0.15525  0.0000000E+00
 0.23575  0.0000000E+00
 0.31625  0.0000000E+00
 0.39675  0.0000000E+00
 0.47725  0.0000000E+00
 0.55775  0.0000000E+00
 0.63825  0.0000000E+00
 0.71875  0.0000000E+00
 0.79925  0.0000000E+00
 0.87975  0.0000000E+00
 0.96025  0.0000000E+00
 1.04075  0.0000000E+00
 1.12125  0.0000000E+00
 1.20175  0.0000000E+00
 1.28225  0.0000000E+00
 1.36275  0.0000000E+00
 1.44325  0.0000000E+00
 1.52375  0.0000000E+00
 1.60425  0.0000000E+00
 1.68475  0.0000000E+00
 1.76525  0.0000000E+00
 1.84575  0.0000000E+00
 1.92625  0.0000000E+00
 2.00675  0.0000000E+00
 2.08725  0.0000000E+00
 2.16775  0.0000000E+00
 2.24825  0.0000000E+00
 2.32875  0.0000000E+00
 2.40925  0.0000000E+00
 2.48975  0.0000000E+00
 2.57025  0.0000000E+00
 2.65075  0.0000000E+00
 2.73125  0.0000000E+00
 2.81175  0.0000000E+00
 2.89225  35.419
 2.97275  35.2075
 3.05325  35.5721
 3.13375  34.8321
 3.21425  35.0669
 3.29475  34.2862
 3.37525  34.1615
 3.45575  34.2967
 3.53625  34.4546
 3.61675  33.4388
 3.69725  33.3795
 3.77775  33.2804
 3.85825  32.9814
 3.93875  33.353
 4.01925  32.7609
 4.09975  32.5615
 4.18025  32.2951
 4.26075  32.4448
 4.34125  32.3923
 4.42175  32.3617
 4.50225  32.7684
 4.58275  33.2462
 4.66325  33.1525
 4.74375  32.7554
 4.82425  32.4021
 4.90475  32.6444
 4.98525  32.8411
 5.06575  33.5252
 5.14625  33.4552
 5.22675  34.2167
 5.30725  34.0637
 5.38775  34.4924
 5.46825  34.6541
 5.54875  34.791
 5.62925  35.217
 5.70975  35.5559
 5.79025  35.4347
 5.87075  36.0018
 5.95125  38.9513
 6.03175  38.4999
 6.11225  36.9609
 6.19275  36.8036
 6.27325  37.7651
 6.35375  37.8162
 6.43425  38.8343
 6.51475  39.2668
 6.59525  39.4317
 6.67575  39.9949
 6.75625  40.478
 6.83675  41.4851
 6.91725  41.9823
 6.99775  42.3309
 7.07825  42.4607
 7.15875  43.2062
 7.23925  43.7366
 7.31975  43.6664
 7.40025  43.9593
 7.48075  44.0198
 7.56125  44.3458
 7.64175  44.2631
 7.72225  44.2193
 7.80275  43.9418
 7.88325  43.6624
 7.96375  43.6464
 8.04425  43.3368
 8.12475  42.5393
 8.20525  41.9717
 8.28575  40.9841
 8.36625  39.8193
 8.44675  38.6723
 8.52725  37.6059
 8.60775  36.125
 8.68825  35.1226
 8.76875  33.9253
 8.84925  32.5901
 8.92975  31.4688
 9.01025  30.4068
 9.09075  29.8036
 9.17125  28.877
 9.25175  28.0532
 9.33225  27.7402
 9.41275  27.1363
 9.49325  26.364
 9.57375  25.7947
 9.65425  25.3657
 9.73475  24.8811
 9.81525  24.6041
 9.89575  24.4783
 9.97625  24.4631
 10.0567  23.9431
 10.1373  23.9582
 10.2178  23.733
 10.2982  23.6046
 10.3788  23.291
 10.4593  23.115
 10.5397  22.956
 10.6203  22.8659
 10.7007  22.6656
 10.7813  22.6045
 10.8618  22.5941
 10.9422  22.6562
 11.0228  22.4902
 11.1033  22.5064
 11.1837  22.2064
 11.2643  22.2579
 11.3447  22.1881
 11.4253  22.8136
 11.5058  22.5135
 11.5862  23.8405
 11.6668  22.535
 11.7473  22.3018
 11.8277  22.2581
 11.9083  22.4975
 11.9887  23.249
 12.0693  22.6957
 12.1498  22.5047
 12.2302  22.2056
 12.3108  22.2783
 12.3913  22.3173
 12.4718  22.3004
 12.5523  22.5006
 12.6328  22.7872
 12.7133  22.7261
 12.7938  22.8463
 12.8742  23.1169
 12.9548  23.5673
 13.0353  23.9324
 13.1158  24.7381
 13.1963  25.4361
 13.2768  26.4769
 13.3573  27.5749
 13.4378  28.3102
 13.5183  29.0198
 13.5988  29.4044
 13.6793  29.4212
 13.7598  28.8647
 13.8403  28.7821
 13.9208  29.9716
 14.0013  29.0043
 14.0818  27.2185
 14.1623  26.8799
 14.2428  26.314
 14.3233  25.9003
 14.4038  25.9543
 14.4843  25.528
 14.5648  25.368
 14.6453  25.1174
 14.7258  24.895
 14.8063  24.754
 14.8868  24.6374
 14.9673  24.44
 15.0478  24.5756
 15.1283  24.6908
 15.2088  24.9243
 15.2892  24.3983
 15.3698  24.3712
 15.4503  24.0945
 15.5308  24.3032
 15.6113  24.2929
 15.6918  24.3854
 15.7723  24.4055
 15.8528  24.2302
 15.9332  24.4313
 16.0138  24.5102
 16.0943  24.5803
 16.1748  24.5726
 16.2553  26.5074
 16.3358  24.773
 16.4163  24.5129
 16.4967  24.3927
 16.5773  24.3754
 16.6578  24.4402
 16.7383  24.2106
 16.8188  24.1627
 16.8992  24.3337
 16.9798  23.9822
 17.0603  23.85
 17.1408  23.9237
 17.2213  23.8352
 17.3017  23.7991
 17.3823  23.7141
 17.4628  23.8117
 17.5433  23.6693
 17.6238  23.5737
 17.7042  23.5271
 17.7847  23.5318
 17.8653  23.4184
 17.9458  23.5133
 18.0263  23.602
 18.1068  24.2091
 18.1872  23.5536
 18.2678  23.4326
 18.3483  23.4618
 18.4288  23.3736
 18.5093  23.3208
 18.5897  23.3851
 18.6703  23.143
 18.7508  23.1899
 18.8313  23.2014
 18.9118  23.2509
 18.9922  23.1155
 19.0727  23.1742
 19.1533  23.1477
 19.2338  23.0836
 19.3143  23.218
 19.3948  23.4213
 19.4752  23.3559
 19.5558  23.4105
 19.6363  23.5309
 19.7168  23.8902
 19.7973  23.7275
 19.8777  24.1037
 19.9582  23.4758
 20.0388  23.4301
 20.1193  23.3394
 20.1998  23.3855
 20.2803  23.3918
 20.3607  23.329
 20.4413  23.4897
 20.5218  23.4294
 20.6023  23.4847
 20.6828  23.6186
 20.7632  23.974
 20.8438  23.5734
 20.9243  23.585
 21.0048  23.5294
 21.0853  23.5782
 21.1658  23.5074
 21.2462  23.6522
 21.3268  23.5744
 21.4073  23.5797
 21.4878  23.7074
 21.5683  23.6087
 21.6487  23.6745
 21.7293  23.7792
 21.8098  23.7246
 21.8903  23.8806
 21.9708  23.936
 22.0512  24.0172
 22.1318  24.1054
 22.2123  23.9762
 22.2928  24.1529
 22.3733  24.2819
 22.4538  24.3332
 22.5343  24.5234
 22.6148  24.5779
 22.6953  24.7099
 22.7758  24.8964
 22.8563  25.1084
 22.9367  25.5633
 22.9943  25.9367