File: test-data-xrd/xrd-map-34-ID-E/Data_0057.chi
F:\20151113_APS_34IDE\\Brian\Particle1\OCV\Data_0057.tif
2-Theta Angle (Degrees)
Intensity
       2000
 0.07475  0.0000000E+00
 0.15525  0.0000000E+00
 0.23575  0.0000000E+00
 0.31625  0.0000000E+00
 0.39675  0.0000000E+00
 0.47725  0.0000000E+00
 0.55775  0.0000000E+00
 0.63825  0.0000000E+00
 0.71875  0.0000000E+00
 0.79925  0.0000000E+00
 0.87975  0.0000000E+00
 0.96025  0.0000000E+00
 1.04075  0.0000000E+00
 1.12125  0.0000000E+00
 1.20175  0.0000000E+00
 1.28225  0.0000000E+00
 1.36275  0.0000000E+00
 1.44325  0.0000000E+00
 1.52375  0.0000000E+00
 1.60425  0.0000000E+00
 1.68475  0.0000000E+00
 1.76525  0.0000000E+00
 1.84575  0.0000000E+00
 1.92625  0.0000000E+00
 2.00675  0.0000000E+00
 2.08725  0.0000000E+00
 2.16775  0.0000000E+00
 2.24825  0.0000000E+00
 2.32875  0.0000000E+00
 2.40925  0.0000000E+00
 2.48975  0.0000000E+00
 2.57025  0.0000000E+00
 2.65075  0.0000000E+00
 2.73125  0.0000000E+00
 2.81175  0.0000000E+00
 2.89225  34.626
 2.97275  34.7188
 3.05325  35.7298
 3.13375  34.9397
 3.21425  35.7542
 3.29475  34.3813
 3.37525  35.0298
 3.45575  33.685
 3.53625  33.9241
 3.61675  33.319
 3.69725  33.0569
 3.77775  33.2631
 3.85825  32.4143
 3.93875  32.6614
 4.01925  32.8594
 4.09975  32.2323
 4.18025  32.2065
 4.26075  32.5859
 4.34125  32.2842
 4.42175  32.2332
 4.50225  32.2354
 4.58275  32.8167
 4.66325  32.7411
 4.74375  32.9222
 4.82425  32.7134
 4.90475  32.6767
 4.98525  33.0966
 5.06575  33.3204
 5.14625  33.4423
 5.22675  34.1341
 5.30725  34.1732
 5.38775  34.2076
 5.46825  34.5337
 5.54875  34.9438
 5.62925  35.4776
 5.70975  35.66
 5.79025  37.0978
 5.87075  38.4314
 5.95125  92.3735
 6.03175  64.2366
 6.11225  38.5646
 6.19275  37.6719
 6.27325  37.4817
 6.35375  38.1155
 6.43425  38.6779
 6.51475  39.122
 6.59525  40.0265
 6.67575  40.0097
 6.75625  40.9173
 6.83675  41.4586
 6.91725  41.7511
 6.99775  41.9737
 7.07825  42.7656
 7.15875  42.7774
 7.23925  43.295
 7.31975  43.4854
 7.40025  44.0753
 7.48075  44.1491
 7.56125  44.1566
 7.64175  44.1304
 7.72225  44.1584
 7.80275  44.3011
 7.88325  43.6393
 7.96375  43.4782
 8.04425  43.0752
 8.12475  42.4546
 8.20525  41.5293
 8.28575  40.8704
 8.36625  39.7059
 8.44675  38.5445
 8.52725  37.4934
 8.60775  36.4311
 8.68825  34.9267
 8.76875  33.8672
 8.84925  32.6946
 8.92975  31.5985
 9.01025  30.4786
 9.09075  29.8309
 9.17125  28.9201
 9.25175  28.3019
 9.33225  27.4646
 9.41275  26.8113
 9.49325  26.4952
 9.57375  26.0079
 9.65425  25.3744
 9.73475  25.0938
 9.81525  24.9538
 9.89575  24.6928
 9.97625  24.3724
 10.0567  24.169
 10.1373  23.8678
 10.2178  23.773
 10.2982  23.6101
 10.3788  23.5025
 10.4593  23.2315
 10.5397  23.1739
 10.6203  22.954
 10.7007  23.0279
 10.7813  23.0294
 10.8618  22.7655
 10.9422  22.8665
 11.0228  22.686
 11.1033  22.5762
 11.1837  22.6709
 11.2643  22.5286
 11.3447  22.6401
 11.4253  23.1719
 11.5058  24.2561
 11.5862  45.8146
 11.6668  25.7359
 11.7473  23.0584
 11.8277  22.8164
 11.9083  23.1263
 11.9887  29.4212
 12.0693  24.2011
 12.1498  23.6243
 12.2302  22.5838
 12.3108  22.7168
 12.3913  22.8063
 12.4718  22.7681
 12.5523  22.751
 12.6328  22.8616
 12.7133  22.9279
 12.7938  23.2253
 12.8742  23.4091
 12.9548  23.8735
 13.0353  24.2789
 13.1158  24.9123
 13.1963  25.6621
 13.2768  26.7613
 13.3573  27.6504
 13.4378  28.4598
 13.5183  29.4319
 13.5988  29.7892
 13.6793  29.8532
 13.7598  29.6044
 13.8403  29.6539
 13.9208  35.8188
 14.0013  40.4567
 14.0818  28.2954
 14.1623  27.2876
 14.2428  26.7904
 14.3233  26.292
 14.4038  25.9764
 14.4843  25.729
 14.5648  25.6487
 14.6453  25.4003
 14.7258  25.3811
 14.8063  25.0751
 14.8868  25.0654
 14.9673  24.7723
 15.0478  24.8064
 15.1283  25.2665
 15.2088  27.3647
 15.2892  24.8362
 15.3698  24.6292
 15.4503  24.5317
 15.5308  24.6158
 15.6113  24.6205
 15.6918  24.5641
 15.7723  24.4944
 15.8528  24.5286
 15.9332  24.7412
 16.0138  24.748
 16.0943  24.8845
 16.1748  25.1025
 16.2553  27.4832
 16.3358  25.0557
 16.4163  24.7806
 16.4967  24.7876
 16.5773  24.6197
 16.6578  24.5401
 16.7383  24.4321
 16.8188  24.4068
 16.8992  24.6089
 16.9798  24.2916
 17.0603  24.2388
 17.1408  24.209
 17.2213  24.216
 17.3017  24.0975
 17.3823  23.9521
 17.4628  24.0462
 17.5433  24.0224
 17.6238  23.9396
 17.7042  23.8804
 17.7847  24.0347
 17.8653  23.9786
 17.9458  23.9898
 18.0263  24.7216
 18.1068  29.4414
 18.1872  24.7039
 18.2678  23.8365
 18.3483  23.6869
 18.4288  23.7797
 18.5093  23.6883
 18.5897  23.6572
 18.6703  23.5834
 18.7508  23.6078
 18.8313  23.5102
 18.9118  23.5534
 18.9922  23.6047
 19.0727  23.6244
 19.1533  23.5512
 19.2338  23.4281
 19.3143  23.5624
 19.3948  23.631
 19.4752  23.7312
 19.5558  23.8992
 19.6363  24.5891
 19.7168  28.1244
 19.7973  26.7583
 19.8777  31.7324
 19.9582  24.6338
 20.0388  24.1277
 20.1193  23.8598
 20.1998  23.7761
 20.2803  23.8247
 20.3607  23.8508
 20.4413  23.797
 20.5218  23.7463
 20.6023  24.0329
 20.6828  24.3817
 20.7632  28.0385
 20.8438  24.584
 20.9243  24.0807
 21.0048  23.9803
 21.0853  23.9675
 21.1658  23.9311
 21.2462  23.9537
 21.3268  23.9765
 21.4073  23.9012
 21.4878  24.0166
 21.5683  24.0536
 21.6487  24.1359
 21.7293  24.121
 21.8098  24.2006
 21.8903  24.2826
 21.9708  24.1727
 22.0512  24.3001
 22.1318  24.4271
 22.2123  24.4335
 22.2928  24.4683
 22.3733  24.6735
 22.4538  24.7587
 22.5343  24.9588
 22.6148  25.0494
 22.6953  25.2206
 22.7758  25.3769
 22.8563  25.4898
 22.9367  26.0083
 22.9943  26.4326