File: test-data-xrd/xrd-map-34-ID-E/Data_0092.chi
F:\20151113_APS_34IDE\\Brian\Particle1\OCV\Data_0092.tif
2-Theta Angle (Degrees)
Intensity
       2000
 0.07475  0.0000000E+00
 0.15525  0.0000000E+00
 0.23575  0.0000000E+00
 0.31625  0.0000000E+00
 0.39675  0.0000000E+00
 0.47725  0.0000000E+00
 0.55775  0.0000000E+00
 0.63825  0.0000000E+00
 0.71875  0.0000000E+00
 0.79925  0.0000000E+00
 0.87975  0.0000000E+00
 0.96025  0.0000000E+00
 1.04075  0.0000000E+00
 1.12125  0.0000000E+00
 1.20175  0.0000000E+00
 1.28225  0.0000000E+00
 1.36275  0.0000000E+00
 1.44325  0.0000000E+00
 1.52375  0.0000000E+00
 1.60425  0.0000000E+00
 1.68475  0.0000000E+00
 1.76525  0.0000000E+00
 1.84575  0.0000000E+00
 1.92625  0.0000000E+00
 2.00675  0.0000000E+00
 2.08725  0.0000000E+00
 2.16775  0.0000000E+00
 2.24825  0.0000000E+00
 2.32875  0.0000000E+00
 2.40925  0.0000000E+00
 2.48975  0.0000000E+00
 2.57025  0.0000000E+00
 2.65075  0.0000000E+00
 2.73125  0.0000000E+00
 2.81175  0.0000000E+00
 2.89225  36.0617
 2.97275  35.9367
 3.05325  36.0234
 3.13375  35.6457
 3.21425  35.8344
 3.29475  35.5091
 3.37525  34.4154
 3.45575  34.8493
 3.53625  33.9189
 3.61675  33.9845
 3.69725  33.1675
 3.77775  32.8158
 3.85825  32.364
 3.93875  33.1634
 4.01925  33.289
 4.09975  32.6121
 4.18025  31.9945
 4.26075  32.5553
 4.34125  32.6519
 4.42175  32.6783
 4.50225  32.6012
 4.58275  32.674
 4.66325  33.2007
 4.74375  32.9367
 4.82425  32.6836
 4.90475  32.9598
 4.98525  33.2368
 5.06575  33.3997
 5.14625  33.739
 5.22675  34.2643
 5.30725  34.3104
 5.38775  34.8415
 5.46825  35.1888
 5.54875  35.1651
 5.62925  35.773
 5.70975  35.6694
 5.79025  36.3405
 5.87075  37.281
 5.95125  53.8731
 6.03175  49.9152
 6.11225  37.7597
 6.19275  37.4245
 6.27325  37.877
 6.35375  38.2541
 6.43425  38.7437
 6.51475  39.546
 6.59525  39.9055
 6.67575  40.5197
 6.75625  41.2519
 6.83675  41.7323
 6.91725  42.2857
 6.99775  42.5372
 7.07825  43.1916
 7.15875  43.4526
 7.23925  43.6046
 7.31975  43.9649
 7.40025  44.2167
 7.48075  44.6598
 7.56125  44.5985
 7.64175  44.6355
 7.72225  44.436
 7.80275  44.2616
 7.88325  43.987
 7.96375  43.854
 8.04425  43.4489
 8.12475  42.9322
 8.20525  42.1095
 8.28575  41.0922
 8.36625  40.2371
 8.44675  38.8984
 8.52725  37.6699
 8.60775  36.5512
 8.68825  35.1566
 8.76875  34.0101
 8.84925  32.8723
 8.92975  31.7743
 9.01025  30.6584
 9.09075  29.8713
 9.17125  28.9202
 9.25175  28.13
 9.33225  27.4541
 9.41275  26.93
 9.49325  26.343
 9.57375  25.8747
 9.65425  25.6697
 9.73475  25.2769
 9.81525  25.0971
 9.89575  24.6937
 9.97625  24.6318
 10.0567  24.3159
 10.1373  24.0942
 10.2178  23.8251
 10.2982  23.6028
 10.3788  23.4854
 10.4593  23.2224
 10.5397  23.2634
 10.6203  23.3691
 10.7007  23.006
 10.7813  22.9859
 10.8618  22.8222
 10.9422  22.6817
 11.0228  22.5386
 11.1033  22.5834
 11.1837  22.4342
 11.2643  22.5206
 11.3447  22.618
 11.4253  22.9291
 11.5058  23.2346
 11.5862  29.7097
 11.6668  24.1456
 11.7473  22.6179
 11.8277  22.687
 11.9083  22.6978
 11.9887  24.416
 12.0693  24.9087
 12.1498  24.964
 12.2302  22.5864
 12.3108  22.719
 12.3913  22.7947
 12.4718  22.7174
 12.5523  22.8936
 12.6328  22.9599
 12.7133  23.1845
 12.7938  23.2841
 12.8742  23.4904
 12.9548  23.733
 13.0353  24.2531
 13.1158  25.0061
 13.1963  25.8306
 13.2768  26.6135
 13.3573  27.649
 13.4378  28.6307
 13.5183  29.4085
 13.5988  29.815
 13.6793  30.0114
 13.7598  29.6055
 13.8403  29.7447
 13.9208  37.6384
 14.0013  38.8529
 14.0818  28.3463
 14.1623  27.2907
 14.2428  26.9552
 14.3233  26.3318
 14.4038  26.2311
 14.4843  25.8847
 14.5648  25.8068
 14.6453  25.4699
 14.7258  25.3374
 14.8063  25.2692
 14.8868  25.0854
 14.9673  24.9426
 15.0478  25.1267
 15.1283  25.4553
 15.2088  29.0679
 15.2892  24.9987
 15.3698  24.8252
 15.4503  24.7322
 15.5308  24.7718
 15.6113  24.6956
 15.6918  24.7105
 15.7723  24.6111
 15.8528  24.6762
 15.9332  24.824
 16.0138  24.7948
 16.0943  24.8355
 16.1748  24.9394
 16.2553  26.4376
 16.3358  25.2172
 16.4163  24.7314
 16.4967  24.7437
 16.5773  24.7696
 16.6578  24.7903
 16.7383  24.6145
 16.8188  24.6063
 16.8992  24.52
 16.9798  24.5265
 17.0603  24.2627
 17.1408  24.3592
 17.2213  24.3643
 17.3017  24.2897
 17.3823  24.1069
 17.4628  24.1294
 17.5433  24.1348
 17.6238  23.9264
 17.7042  23.9988
 17.7847  23.9229
 17.8653  23.9627
 17.9458  24.0931
 18.0263  25.4068
 18.1068  27.6838
 18.1872  24.4749
 18.2678  23.7861
 18.3483  23.8741
 18.4288  23.7377
 18.5093  23.6353
 18.5897  23.7221
 18.6703  23.5487
 18.7508  23.5964
 18.8313  23.6918
 18.9118  23.6614
 18.9922  23.737
 19.0727  23.6941
 19.1533  23.5636
 19.2338  23.6942
 19.3143  23.6174
 19.3948  23.8365
 19.4752  23.8086
 19.5558  23.9221
 19.6363  24.436
 19.7168  28.7753
 19.7973  26.8858
 19.8777  31.1302
 19.9582  24.715
 20.0388  24.1972
 20.1193  23.9927
 20.1998  23.9274
 20.2803  23.8568
 20.3607  23.8722
 20.4413  23.9095
 20.5218  24.0133
 20.6023  23.9843
 20.6828  24.6852
 20.7632  27.7633
 20.8438  24.9353
 20.9243  24.1946
 21.0048  24.1094
 21.0853  23.9762
 21.1658  23.9694
 21.2462  24.0564
 21.3268  24.0572
 21.4073  24.1275
 21.4878  24.162
 21.5683  24.1478
 21.6487  24.234
 21.7293  24.1978
 21.8098  24.3744
 21.8903  24.161
 21.9708  24.3385
 22.0512  24.4466
 22.1318  24.3852
 22.2123  24.3937
 22.2928  24.5153
 22.3733  24.5635
 22.4538  24.841
 22.5343  24.9282
 22.6148  25.1563
 22.6953  25.2187
 22.7758  25.3456
 22.8563  25.6852
 22.9367  26.1909
 22.9943  26.34