File: test-data-xrd/xrd-map-34-ID-E/Data_0079.chi
F:\20151113_APS_34IDE\\Brian\Particle1\OCV\Data_0079.tif
2-Theta Angle (Degrees)
Intensity
       2000
 0.07475  0.0000000E+00
 0.15525  0.0000000E+00
 0.23575  0.0000000E+00
 0.31625  0.0000000E+00
 0.39675  0.0000000E+00
 0.47725  0.0000000E+00
 0.55775  0.0000000E+00
 0.63825  0.0000000E+00
 0.71875  0.0000000E+00
 0.79925  0.0000000E+00
 0.87975  0.0000000E+00
 0.96025  0.0000000E+00
 1.04075  0.0000000E+00
 1.12125  0.0000000E+00
 1.20175  0.0000000E+00
 1.28225  0.0000000E+00
 1.36275  0.0000000E+00
 1.44325  0.0000000E+00
 1.52375  0.0000000E+00
 1.60425  0.0000000E+00
 1.68475  0.0000000E+00
 1.76525  0.0000000E+00
 1.84575  0.0000000E+00
 1.92625  0.0000000E+00
 2.00675  0.0000000E+00
 2.08725  0.0000000E+00
 2.16775  0.0000000E+00
 2.24825  0.0000000E+00
 2.32875  0.0000000E+00
 2.40925  0.0000000E+00
 2.48975  0.0000000E+00
 2.57025  0.0000000E+00
 2.65075  0.0000000E+00
 2.73125  0.0000000E+00
 2.81175  0.0000000E+00
 2.89225  35.8566
 2.97275  36.1313
 3.05325  35.7495
 3.13375  35.1286
 3.21425  35.756
 3.29475  35.8362
 3.37525  36.0772
 3.45575  34.0521
 3.53625  34.0796
 3.61675  34.1282
 3.69725  32.9799
 3.77775  32.8137
 3.85825  33.339
 3.93875  32.1767
 4.01925  32.4343
 4.09975  32.3948
 4.18025  33.1615
 4.26075  32.3951
 4.34125  32.3819
 4.42175  32.5267
 4.50225  32.7169
 4.58275  32.9386
 4.66325  33.0153
 4.74375  32.8535
 4.82425  32.8273
 4.90475  33.0659
 4.98525  32.9708
 5.06575  33.3566
 5.14625  34.0462
 5.22675  33.9666
 5.30725  34.0243
 5.38775  34.4966
 5.46825  34.6056
 5.54875  35.1465
 5.62925  35.4841
 5.70975  35.612
 5.79025  35.9221
 5.87075  37.4952
 5.95125  61.5562
 6.03175  44.4071
 6.11225  37.3245
 6.19275  37.4555
 6.27325  37.9423
 6.35375  38.3449
 6.43425  38.3085
 6.51475  39.2834
 6.59525  39.6713
 6.67575  40.3059
 6.75625  40.8966
 6.83675  41.6995
 6.91725  41.7624
 6.99775  42.7061
 7.07825  42.6741
 7.15875  43.1456
 7.23925  43.6657
 7.31975  43.7731
 7.40025  43.9955
 7.48075  44.3471
 7.56125  44.648
 7.64175  44.5932
 7.72225  44.3396
 7.80275  44.3439
 7.88325  44.1815
 7.96375  43.6976
 8.04425  43.2964
 8.12475  42.8513
 8.20525  41.8473
 8.28575  40.8388
 8.36625  39.8795
 8.44675  38.8343
 8.52725  37.6708
 8.60775  36.451
 8.68825  35.2912
 8.76875  33.9998
 8.84925  32.7163
 8.92975  31.6822
 9.01025  30.7727
 9.09075  29.8985
 9.17125  28.9198
 9.25175  28.0652
 9.33225  27.477
 9.41275  26.8587
 9.49325  26.4851
 9.57375  25.967
 9.65425  25.733
 9.73475  25.312
 9.81525  24.9941
 9.89575  24.612
 9.97625  24.3792
 10.0567  24.1966
 10.1373  23.9545
 10.2178  23.8512
 10.2982  23.5984
 10.3788  23.4872
 10.4593  23.4013
 10.5397  23.2569
 10.6203  23.3119
 10.7007  23.1174
 10.7813  22.9456
 10.8618  22.7995
 10.9422  22.8734
 11.0228  22.6702
 11.1033  22.5494
 11.1837  22.5268
 11.2643  22.4984
 11.3447  22.8124
 11.4253  23.0456
 11.5058  23.8653
 11.5862  44.0316
 11.6668  25.4892
 11.7473  23.028
 11.8277  22.8294
 11.9083  22.9234
 11.9887  24.6968
 12.0693  24.8004
 12.1498  24.4047
 12.2302  22.815
 12.3108  22.6912
 12.3913  22.7098
 12.4718  22.8504
 12.5523  22.7868
 12.6328  22.9164
 12.7133  23.0588
 12.7938  23.1731
 12.8742  23.4689
 12.9548  23.7718
 13.0353  24.59
 13.1158  24.9816
 13.1963  25.7892
 13.2768  26.6772
 13.3573  27.8099
 13.4378  28.8132
 13.5183  29.4215
 13.5988  29.807
 13.6793  29.9619
 13.7598  29.6839
 13.8403  29.7054
 13.9208  36.4281
 14.0013  47.1414
 14.0818  28.7127
 14.1623  27.4761
 14.2428  27.0293
 14.3233  26.395
 14.4038  26.0448
 14.4843  25.7973
 14.5648  25.6385
 14.6453  25.5703
 14.7258  25.1873
 14.8063  25.1325
 14.8868  24.9188
 14.9673  24.9657
 15.0478  24.9949
 15.1283  25.3633
 15.2088  30.0896
 15.2892  25.1242
 15.3698  24.7023
 15.4503  24.6533
 15.5308  24.7015
 15.6113  24.6234
 15.6918  24.6912
 15.7723  24.6896
 15.8528  24.6632
 15.9332  24.7454
 16.0138  24.6751
 16.0943  24.748
 16.1748  25.0964
 16.2553  27.6626
 16.3358  25.2408
 16.4163  24.875
 16.4967  24.6632
 16.5773  24.8476
 16.6578  24.575
 16.7383  24.587
 16.8188  24.5102
 16.8992  24.5013
 16.9798  24.4883
 17.0603  24.2928
 17.1408  24.4079
 17.2213  24.3648
 17.3017  24.2202
 17.3823  24.0799
 17.4628  24.1098
 17.5433  23.8633
 17.6238  23.9756
 17.7042  23.9647
 17.7847  23.9771
 17.8653  23.9627
 17.9458  24.0446
 18.0263  25.6687
 18.1068  28.4186
 18.1872  24.6502
 18.2678  23.811
 18.3483  23.7722
 18.4288  23.6447
 18.5093  23.6792
 18.5897  23.6307
 18.6703  23.5554
 18.7508  23.656
 18.8313  23.568
 18.9118  23.6032
 18.9922  23.6155
 19.0727  23.623
 19.1533  23.8176
 19.2338  23.604
 19.3143  23.7056
 19.3948  23.8682
 19.4752  23.8256
 19.5558  23.9551
 19.6363  24.7883
 19.7168  30.0906
 19.7973  26.6124
 19.8777  32.1041
 19.9582  24.9622
 20.0388  24.0793
 20.1193  23.998
 20.1998  23.8089
 20.2803  23.7867
 20.3607  23.7583
 20.4413  23.8776
 20.5218  23.8723
 20.6023  24.2977
 20.6828  24.9007
 20.7632  31.3355
 20.8438  24.8767
 20.9243  24.2915
 21.0048  24.1716
 21.0853  24.0621
 21.1658  23.8483
 21.2462  23.9753
 21.3268  23.9698
 21.4073  23.9987
 21.4878  24.0195
 21.5683  24.024
 21.6487  24.2439
 21.7293  24.1614
 21.8098  24.2868
 21.8903  24.1473
 21.9708  24.2266
 22.0512  24.4223
 22.1318  24.5154
 22.2123  24.3518
 22.2928  24.5716
 22.3733  24.705
 22.4538  24.8107
 22.5343  24.8417
 22.6148  24.9204
 22.6953  25.0997
 22.7758  25.3463
 22.8563  25.5956
 22.9367  26.0546
 22.9943  26.2709