File: test-data-xrd/xrd-map-34-ID-E/Data_0135.chi
F:\20151113_APS_34IDE\\Brian\Particle1\OCV\Data_0135.tif
2-Theta Angle (Degrees)
Intensity
       2000
 0.07475  0.0000000E+00
 0.15525  0.0000000E+00
 0.23575  0.0000000E+00
 0.31625  0.0000000E+00
 0.39675  0.0000000E+00
 0.47725  0.0000000E+00
 0.55775  0.0000000E+00
 0.63825  0.0000000E+00
 0.71875  0.0000000E+00
 0.79925  0.0000000E+00
 0.87975  0.0000000E+00
 0.96025  0.0000000E+00
 1.04075  0.0000000E+00
 1.12125  0.0000000E+00
 1.20175  0.0000000E+00
 1.28225  0.0000000E+00
 1.36275  0.0000000E+00
 1.44325  0.0000000E+00
 1.52375  0.0000000E+00
 1.60425  0.0000000E+00
 1.68475  0.0000000E+00
 1.76525  0.0000000E+00
 1.84575  0.0000000E+00
 1.92625  0.0000000E+00
 2.00675  0.0000000E+00
 2.08725  0.0000000E+00
 2.16775  0.0000000E+00
 2.24825  0.0000000E+00
 2.32875  0.0000000E+00
 2.40925  0.0000000E+00
 2.48975  0.0000000E+00
 2.57025  0.0000000E+00
 2.65075  0.0000000E+00
 2.73125  0.0000000E+00
 2.81175  0.0000000E+00
 2.89225  37.1157
 2.97275  35.894
 3.05325  35.7009
 3.13375  34.9912
 3.21425  35.1397
 3.29475  35.4842
 3.37525  35.3264
 3.45575  34.7231
 3.53625  33.835
 3.61675  33.3358
 3.69725  32.8238
 3.77775  33.2891
 3.85825  32.3997
 3.93875  32.8611
 4.01925  32.659
 4.09975  32.0643
 4.18025  32.4569
 4.26075  32.2923
 4.34125  32.2128
 4.42175  32.5386
 4.50225  32.362
 4.58275  32.602
 4.66325  32.6481
 4.74375  31.9274
 4.82425  32.5771
 4.90475  32.699
 4.98525  32.9914
 5.06575  33.3396
 5.14625  33.5654
 5.22675  33.9714
 5.30725  34.061
 5.38775  34.2796
 5.46825  34.6516
 5.54875  35.0191
 5.62925  34.9795
 5.70975  35.0987
 5.79025  35.4442
 5.87075  35.6364
 5.95125  37.2097
 6.03175  37.3918
 6.11225  36.3473
 6.19275  36.7085
 6.27325  37.3223
 6.35375  37.6782
 6.43425  38.5407
 6.51475  39.1915
 6.59525  39.6676
 6.67575  40.2074
 6.75625  40.6233
 6.83675  41.4231
 6.91725  42.0562
 6.99775  42.0168
 7.07825  42.7518
 7.15875  42.9622
 7.23925  43.4592
 7.31975  43.641
 7.40025  44.04
 7.48075  44.1861
 7.56125  44.4003
 7.64175  44.2356
 7.72225  44.1467
 7.80275  44.2387
 7.88325  43.7772
 7.96375  43.4402
 8.04425  43.1807
 8.12475  42.6831
 8.20525  41.7188
 8.28575  40.9249
 8.36625  39.7884
 8.44675  38.5678
 8.52725  37.7249
 8.60775  36.13
 8.68825  34.771
 8.76875  33.6598
 8.84925  32.7645
 8.92975  31.7573
 9.01025  30.4777
 9.09075  29.6079
 9.17125  28.8666
 9.25175  27.8934
 9.33225  27.2741
 9.41275  27.0446
 9.49325  26.3649
 9.57375  25.6382
 9.65425  25.3809
 9.73475  24.9571
 9.81525  24.7731
 9.89575  24.4494
 9.97625  24.2204
 10.0567  24.1488
 10.1373  23.7912
 10.2178  23.5031
 10.2982  23.3515
 10.3788  23.1912
 10.4593  23.0427
 10.5397  22.8955
 10.6203  22.657
 10.7007  22.791
 10.7813  22.6547
 10.8618  22.623
 10.9422  22.6543
 11.0228  22.2942
 11.1033  22.2596
 11.1837  22.3099
 11.2643  22.1347
 11.3447  22.0488
 11.4253  22.465
 11.5058  22.2737
 11.5862  23.8287
 11.6668  22.3498
 11.7473  22.1443
 11.8277  22.3078
 11.9083  22.3195
 11.9887  22.5857
 12.0693  22.6533
 12.1498  22.5252
 12.2302  22.2819
 12.3108  22.204
 12.3913  22.3963
 12.4718  22.3433
 12.5523  22.4315
 12.6328  22.5601
 12.7133  22.8062
 12.7938  22.8259
 12.8742  23.1491
 12.9548  23.3982
 13.0353  23.8399
 13.1158  24.5677
 13.1963  25.4456
 13.2768  26.2851
 13.3573  27.4375
 13.4378  28.2386
 13.5183  29.1731
 13.5988  29.4602
 13.6793  29.5066
 13.7598  29.2852
 13.8403  28.7522
 13.9208  29.0637
 14.0013  28.3794
 14.0818  27.1516
 14.1623  26.7269
 14.2428  26.1946
 14.3233  26.0185
 14.4038  25.7908
 14.4843  25.5496
 14.5648  25.3798
 14.6453  25.101
 14.7258  24.9139
 14.8063  24.8609
 14.8868  24.5983
 14.9673  24.7226
 15.0478  24.5237
 15.1283  24.3399
 15.2088  24.7341
 15.2892  24.462
 15.3698  24.5096
 15.4503  24.2925
 15.5308  24.2878
 15.6113  24.2809
 15.6918  24.2332
 15.7723  24.3185
 15.8528  24.3361
 15.9332  24.3667
 16.0138  24.4458
 16.0943  24.4725
 16.1748  24.6545
 16.2553  27.9546
 16.3358  24.8353
 16.4163  24.5601
 16.4967  24.6054
 16.5773  24.4525
 16.6578  24.6237
 16.7383  24.3652
 16.8188  24.156
 16.8992  24.1602
 16.9798  24.1027
 17.0603  24.0183
 17.1408  23.9118
 17.2213  24.0467
 17.3017  23.7706
 17.3823  23.7199
 17.4628  23.6267
 17.5433  23.8114
 17.6238  23.469
 17.7042  23.5941
 17.7847  23.5908
 17.8653  23.4619
 17.9458  23.4272
 18.0263  23.5444
 18.1068  23.8436
 18.1872  23.4339
 18.2678  23.3379
 18.3483  23.3649
 18.4288  23.4009
 18.5093  23.3642
 18.5897  23.34
 18.6703  23.1283
 18.7508  23.1616
 18.8313  23.2107
 18.9118  23.302
 18.9922  23.2084
 19.0727  23.2056
 19.1533  23.3061
 19.2338  23.2042
 19.3143  23.2511
 19.3948  23.3117
 19.4752  23.4056
 19.5558  23.3709
 19.6363  23.442
 19.7168  23.8726
 19.7973  23.6879
 19.8777  24.2528
 19.9582  23.3601
 20.0388  23.4385
 20.1193  23.4807
 20.1998  23.3828
 20.2803  23.381
 20.3607  23.3618
 20.4413  23.4834
 20.5218  23.3669
 20.6023  23.5126
 20.6828  23.4956
 20.7632  24.0064
 20.8438  23.5479
 20.9243  23.596
 21.0048  23.4158
 21.0853  23.5171
 21.1658  23.5867
 21.2462  23.6126
 21.3268  23.7192
 21.4073  23.6599
 21.4878  23.6818
 21.5683  23.6187
 21.6487  23.846
 21.7293  23.8309
 21.8098  23.8972
 21.8903  23.8982
 21.9708  23.8897
 22.0512  24.0019
 22.1318  24.0558
 22.2123  24.0315
 22.2928  24.3084
 22.3733  24.2448
 22.4538  24.3354
 22.5343  24.4062
 22.6148  24.684
 22.6953  24.8339
 22.7758  24.9481
 22.8563  25.1792
 22.9367  25.5676
 22.9943  25.871