File: test-data-xrd/xrd-map-34-ID-E/Data_0009.chi
F:\20151113_APS_34IDE\\Brian\Particle1\OCV\Data_0009.tif
2-Theta Angle (Degrees)
Intensity
       2000
 0.07475  0.0000000E+00
 0.15525  0.0000000E+00
 0.23575  0.0000000E+00
 0.31625  0.0000000E+00
 0.39675  0.0000000E+00
 0.47725  0.0000000E+00
 0.55775  0.0000000E+00
 0.63825  0.0000000E+00
 0.71875  0.0000000E+00
 0.79925  0.0000000E+00
 0.87975  0.0000000E+00
 0.96025  0.0000000E+00
 1.04075  0.0000000E+00
 1.12125  0.0000000E+00
 1.20175  0.0000000E+00
 1.28225  0.0000000E+00
 1.36275  0.0000000E+00
 1.44325  0.0000000E+00
 1.52375  0.0000000E+00
 1.60425  0.0000000E+00
 1.68475  0.0000000E+00
 1.76525  0.0000000E+00
 1.84575  0.0000000E+00
 1.92625  0.0000000E+00
 2.00675  0.0000000E+00
 2.08725  0.0000000E+00
 2.16775  0.0000000E+00
 2.24825  0.0000000E+00
 2.32875  0.0000000E+00
 2.40925  0.0000000E+00
 2.48975  0.0000000E+00
 2.57025  0.0000000E+00
 2.65075  0.0000000E+00
 2.73125  0.0000000E+00
 2.81175  0.0000000E+00
 2.89225  35.0486
 2.97275  35.4318
 3.05325  35.9516
 3.13375  35.1269
 3.21425  35.556
 3.29475  35.1412
 3.37525  34.8836
 3.45575  33.7812
 3.53625  34.7465
 3.61675  33.7951
 3.69725  33.0455
 3.77775  33.0975
 3.85825  32.8721
 3.93875  32.2633
 4.01925  32.8401
 4.09975  32.4197
 4.18025  32.399
 4.26075  31.825
 4.34125  31.8717
 4.42175  32.3747
 4.50225  32.3575
 4.58275  32.6906
 4.66325  33.0608
 4.74375  32.886
 4.82425  32.7671
 4.90475  33.0059
 4.98525  32.8306
 5.06575  33.1362
 5.14625  33.2269
 5.22675  33.8127
 5.30725  34.2515
 5.38775  34.5486
 5.46825  34.9211
 5.54875  34.7145
 5.62925  35.3831
 5.70975  35.9358
 5.79025  35.5246
 5.87075  36.2539
 5.95125  40.0864
 6.03175  42.4897
 6.11225  36.9664
 6.19275  37.2586
 6.27325  37.2976
 6.35375  38.2013
 6.43425  38.4428
 6.51475  39.0494
 6.59525  39.7019
 6.67575  40.1381
 6.75625  40.7445
 6.83675  41.5866
 6.91725  41.6042
 6.99775  42.105
 7.07825  42.7276
 7.15875  43.0953
 7.23925  43.4167
 7.31975  43.6976
 7.40025  44.1022
 7.48075  44.1601
 7.56125  44.4065
 7.64175  44.4448
 7.72225  44.4888
 7.80275  44.2176
 7.88325  43.9634
 7.96375  43.6902
 8.04425  43.2944
 8.12475  42.8902
 8.20525  42.0664
 8.28575  41.1145
 8.36625  39.8623
 8.44675  39.0192
 8.52725  37.8001
 8.60775  36.4117
 8.68825  35.1553
 8.76875  34.0609
 8.84925  32.9818
 8.92975  31.8236
 9.01025  30.7606
 9.09075  29.6896
 9.17125  29.082
 9.25175  28.2304
 9.33225  27.4532
 9.41275  27.142
 9.49325  26.6345
 9.57375  26.0799
 9.65425  25.5743
 9.73475  25.3176
 9.81525  24.9973
 9.89575  24.5206
 9.97625  24.2564
 10.0567  24.0392
 10.1373  23.8268
 10.2178  23.8322
 10.2982  23.4551
 10.3788  23.3135
 10.4593  23.1762
 10.5397  23.0644
 10.6203  23.1355
 10.7007  22.7729
 10.7813  22.8505
 10.8618  22.5985
 10.9422  22.6489
 11.0228  22.4008
 11.1033  22.5086
 11.1837  22.457
 11.2643  22.26
 11.3447  22.4015
 11.4253  22.8213
 11.5058  22.4024
 11.5862  24.8851
 11.6668  22.7981
 11.7473  22.4561
 11.8277  22.2799
 11.9083  22.3446
 11.9887  22.5006
 12.0693  23.1063
 12.1498  22.9408
 12.2302  22.2943
 12.3108  22.471
 12.3913  22.4277
 12.4718  22.5131
 12.5523  22.5164
 12.6328  22.699
 12.7133  22.8428
 12.7938  23.0948
 12.8742  23.2958
 12.9548  23.7365
 13.0353  24.2087
 13.1158  24.7947
 13.1963  25.5121
 13.2768  26.5179
 13.3573  27.5111
 13.4378  28.5112
 13.5183  29.2562
 13.5988  29.7054
 13.6793  29.5705
 13.7598  29.2527
 13.8403  28.8366
 13.9208  29.0933
 14.0013  28.2061
 14.0818  27.2588
 14.1623  26.9252
 14.2428  26.4199
 14.3233  26.0374
 14.4038  25.8561
 14.4843  25.4713
 14.5648  25.5183
 14.6453  25.3348
 14.7258  25.0328
 14.8063  24.8798
 14.8868  24.838
 14.9673  24.8591
 15.0478  24.6732
 15.1283  24.7582
 15.2088  25.4389
 15.2892  24.5408
 15.3698  24.4032
 15.4503  25.4
 15.5308  24.4177
 15.6113  24.3707
 15.6918  24.3491
 15.7723  24.4801
 15.8528  24.3708
 15.9332  24.4486
 16.0138  24.6108
 16.0943  24.5346
 16.1748  24.621
 16.2553  25.3691
 16.3358  24.9461
 16.4163  24.6538
 16.4967  24.5206
 16.5773  24.5423
 16.6578  24.3234
 16.7383  24.4593
 16.8188  24.3608
 16.8992  24.2053
 16.9798  24.2
 17.0603  24.1687
 17.1408  24.1415
 17.2213  24.05
 17.3017  23.9603
 17.3823  23.8485
 17.4628  23.8908
 17.5433  23.7914
 17.6238  23.7785
 17.7042  23.6577
 17.7847  23.6596
 17.8653  23.6215
 17.9458  23.7058
 18.0263  23.8612
 18.1068  25.1601
 18.1872  23.6476
 18.2678  23.4308
 18.3483  23.468
 18.4288  23.3906
 18.5093  23.439
 18.5897  23.4444
 18.6703  23.4291
 18.7508  23.2993
 18.8313  23.4299
 18.9118  23.3922
 18.9922  23.3473
 19.0727  23.5088
 19.1533  23.3077
 19.2338  23.4956
 19.3143  23.6639
 19.3948  23.5231
 19.4752  23.409
 19.5558  23.575
 19.6363  23.894
 19.7168  24.7101
 19.7973  25.4949
 19.8777  29.6571
 19.9582  23.9781
 20.0388  23.638
 20.1193  23.7174
 20.1998  23.6879
 20.2803  23.5949
 20.3607  23.5956
 20.4413  23.4787
 20.5218  23.5714
 20.6023  23.5701
 20.6828  23.6708
 20.7632  24.1544
 20.8438  23.7301
 20.9243  23.6162
 21.0048  23.703
 21.0853  23.6872
 21.1658  23.7128
 21.2462  23.7701
 21.3268  23.6361
 21.4073  23.7599
 21.4878  23.8384
 21.5683  23.9143
 21.6487  23.9233
 21.7293  23.9058
 21.8098  23.9475
 21.8903  24.0278
 21.9708  24.061
 22.0512  24.1438
 22.1318  24.1244
 22.2123  24.0823
 22.2928  24.2979
 22.3733  24.3078
 22.4538  24.4362
 22.5343  24.694
 22.6148  24.6807
 22.6953  24.8421
 22.7758  25.1022
 22.8563  25.3792
 22.9367  25.7608
 22.9943  26.2448