File: test-data-xrd/xrd-map-34-ID-E/Data_0100.chi
F:\20151113_APS_34IDE\\Brian\Particle1\OCV\Data_0100.tif
2-Theta Angle (Degrees)
Intensity
       2000
 0.07475  0.0000000E+00
 0.15525  0.0000000E+00
 0.23575  0.0000000E+00
 0.31625  0.0000000E+00
 0.39675  0.0000000E+00
 0.47725  0.0000000E+00
 0.55775  0.0000000E+00
 0.63825  0.0000000E+00
 0.71875  0.0000000E+00
 0.79925  0.0000000E+00
 0.87975  0.0000000E+00
 0.96025  0.0000000E+00
 1.04075  0.0000000E+00
 1.12125  0.0000000E+00
 1.20175  0.0000000E+00
 1.28225  0.0000000E+00
 1.36275  0.0000000E+00
 1.44325  0.0000000E+00
 1.52375  0.0000000E+00
 1.60425  0.0000000E+00
 1.68475  0.0000000E+00
 1.76525  0.0000000E+00
 1.84575  0.0000000E+00
 1.92625  0.0000000E+00
 2.00675  0.0000000E+00
 2.08725  0.0000000E+00
 2.16775  0.0000000E+00
 2.24825  0.0000000E+00
 2.32875  0.0000000E+00
 2.40925  0.0000000E+00
 2.48975  0.0000000E+00
 2.57025  0.0000000E+00
 2.65075  0.0000000E+00
 2.73125  0.0000000E+00
 2.81175  0.0000000E+00
 2.89225  36.3997
 2.97275  35.5129
 3.05325  34.9584
 3.13375  35.4597
 3.21425  35.3948
 3.29475  35.0074
 3.37525  34.8621
 3.45575  34.9267
 3.53625  33.9982
 3.61675  34.0377
 3.69725  34.0086
 3.77775  33.4016
 3.85825  32.8901
 3.93875  32.6689
 4.01925  33.1825
 4.09975  32.4573
 4.18025  32.4005
 4.26075  32.6949
 4.34125  32.4222
 4.42175  32.9395
 4.50225  32.9086
 4.58275  32.6434
 4.66325  33.3366
 4.74375  33.1945
 4.82425  33.2131
 4.90475  33.1782
 4.98525  33.313
 5.06575  33.7504
 5.14625  33.8916
 5.22675  34.1402
 5.30725  34.6152
 5.38775  34.8825
 5.46825  35.4663
 5.54875  35.1076
 5.62925  35.5998
 5.70975  35.9726
 5.79025  36.1284
 5.87075  36.9279
 5.95125  45.1499
 6.03175  52.4905
 6.11225  37.7708
 6.19275  37.8274
 6.27325  38.3104
 6.35375  38.5711
 6.43425  38.9019
 6.51475  39.4102
 6.59525  39.8201
 6.67575  40.5
 6.75625  41.1808
 6.83675  41.6476
 6.91725  42.3749
 6.99775  42.8199
 7.07825  43.1483
 7.15875  43.6303
 7.23925  44.0065
 7.31975  44.2032
 7.40025  44.4839
 7.48075  44.6753
 7.56125  44.6576
 7.64175  44.8306
 7.72225  44.7673
 7.80275  44.5517
 7.88325  44.683
 7.96375  44.229
 8.04425  43.8327
 8.12475  42.9623
 8.20525  42.3117
 8.28575  41.1864
 8.36625  40.3436
 8.44675  39.0784
 8.52725  38.2625
 8.60775  36.8074
 8.68825  35.68
 8.76875  34.3594
 8.84925  33.1748
 8.92975  32.1032
 9.01025  30.9615
 9.09075  30.2445
 9.17125  29.203
 9.25175  28.363
 9.33225  27.773
 9.41275  27.3696
 9.49325  26.7951
 9.57375  26.2347
 9.65425  25.7267
 9.73475  25.4265
 9.81525  25.1247
 9.89575  24.8968
 9.97625  24.6675
 10.0567  24.2992
 10.1373  24.0181
 10.2178  23.9797
 10.2982  23.7445
 10.3788  23.6258
 10.4593  23.5787
 10.5397  23.5481
 10.6203  23.2734
 10.7007  23.202
 10.7813  23.0481
 10.8618  23.0346
 10.9422  22.5824
 11.0228  22.8235
 11.1033  22.6826
 11.1837  22.7019
 11.2643  22.7454
 11.3447  22.6118
 11.4253  22.9073
 11.5058  23.2253
 11.5862  29.4485
 11.6668  24.4706
 11.7473  23.0325
 11.8277  22.8842
 11.9083  23.0528
 11.9887  26.9556
 12.0693  26.6071
 12.1498  25.2709
 12.2302  22.8579
 12.3108  22.9657
 12.3913  22.7685
 12.4718  22.8262
 12.5523  22.7584
 12.6328  22.9319
 12.7133  23.0146
 12.7938  23.3193
 12.8742  23.6764
 12.9548  23.9622
 13.0353  24.3533
 13.1158  25.0321
 13.1963  25.7146
 13.2768  26.8726
 13.3573  28.146
 13.4378  28.9412
 13.5183  29.4253
 13.5988  29.8143
 13.6793  29.9928
 13.7598  29.7331
 13.8403  29.5059
 13.9208  31.6132
 14.0013  30.2209
 14.0818  27.7746
 14.1623  27.4044
 14.2428  26.8673
 14.3233  26.5169
 14.4038  26.2849
 14.4843  25.8041
 14.5648  25.7057
 14.6453  25.6247
 14.7258  25.2318
 14.8063  25.1857
 14.8868  25.1273
 14.9673  24.9584
 15.0478  25.1057
 15.1283  25.6247
 15.2088  27.7137
 15.2892  25.193
 15.3698  24.8006
 15.4503  24.6947
 15.5308  24.8262
 15.6113  24.825
 15.6918  24.7819
 15.7723  24.7517
 15.8528  24.6976
 15.9332  24.841
 16.0138  24.7823
 16.0943  24.9224
 16.1748  25.2382
 16.2553  28.8656
 16.3358  25.3286
 16.4163  24.9972
 16.4967  24.8014
 16.5773  24.816
 16.6578  24.6775
 16.7383  24.6914
 16.8188  24.4974
 16.8992  24.5706
 16.9798  24.4855
 17.0603  24.3087
 17.1408  24.2358
 17.2213  24.6676
 17.3017  24.2257
 17.3823  24.133
 17.4628  24.0326
 17.5433  23.9981
 17.6238  24.0506
 17.7042  23.9671
 17.7847  23.906
 17.8653  23.9798
 17.9458  23.9715
 18.0263  24.3302
 18.1068  25.621
 18.1872  24.5087
 18.2678  23.8289
 18.3483  23.7937
 18.4288  23.7682
 18.5093  23.765
 18.5897  23.731
 18.6703  23.5914
 18.7508  23.6325
 18.8313  23.6123
 18.9118  23.6509
 18.9922  23.6167
 19.0727  23.7128
 19.1533  23.7102
 19.2338  23.7074
 19.3143  23.7175
 19.3948  23.7219
 19.4752  23.8306
 19.5558  23.8675
 19.6363  24.2327
 19.7168  25.9652
 19.7973  26.1238
 19.8777  31.3535
 19.9582  24.4407
 20.0388  23.9503
 20.1193  23.9141
 20.1998  23.9826
 20.2803  23.8625
 20.3607  23.9847
 20.4413  23.9251
 20.5218  23.8192
 20.6023  24.0532
 20.6828  24.5603
 20.7632  27.5568
 20.8438  24.5638
 20.9243  24.1979
 21.0048  24.0333
 21.0853  24.0588
 21.1658  23.9402
 21.2462  23.9783
 21.3268  23.9642
 21.4073  24.0082
 21.4878  24.0695
 21.5683  24.0937
 21.6487  24.1886
 21.7293  24.2156
 21.8098  24.2161
 21.8903  24.3072
 21.9708  24.3054
 22.0512  24.3165
 22.1318  24.515
 22.2123  24.3763
 22.2928  24.4909
 22.3733  24.6592
 22.4538  24.7807
 22.5343  24.8332
 22.6148  25.0057
 22.6953  25.3249
 22.7758  25.3406
 22.8563  25.7262
 22.9367  26.0621
 22.9943  26.4996