File: test-data-xrd/xrd-map-34-ID-E/Data_0043.chi
F:\20151113_APS_34IDE\\Brian\Particle1\OCV\Data_0043.tif
2-Theta Angle (Degrees)
Intensity
       2000
 0.07475  0.0000000E+00
 0.15525  0.0000000E+00
 0.23575  0.0000000E+00
 0.31625  0.0000000E+00
 0.39675  0.0000000E+00
 0.47725  0.0000000E+00
 0.55775  0.0000000E+00
 0.63825  0.0000000E+00
 0.71875  0.0000000E+00
 0.79925  0.0000000E+00
 0.87975  0.0000000E+00
 0.96025  0.0000000E+00
 1.04075  0.0000000E+00
 1.12125  0.0000000E+00
 1.20175  0.0000000E+00
 1.28225  0.0000000E+00
 1.36275  0.0000000E+00
 1.44325  0.0000000E+00
 1.52375  0.0000000E+00
 1.60425  0.0000000E+00
 1.68475  0.0000000E+00
 1.76525  0.0000000E+00
 1.84575  0.0000000E+00
 1.92625  0.0000000E+00
 2.00675  0.0000000E+00
 2.08725  0.0000000E+00
 2.16775  0.0000000E+00
 2.24825  0.0000000E+00
 2.32875  0.0000000E+00
 2.40925  0.0000000E+00
 2.48975  0.0000000E+00
 2.57025  0.0000000E+00
 2.65075  0.0000000E+00
 2.73125  0.0000000E+00
 2.81175  0.0000000E+00
 2.89225  33.3186
 2.97275  36.1738
 3.05325  35.7397
 3.13375  35.0353
 3.21425  34.8608
 3.29475  34.2963
 3.37525  34.6427
 3.45575  34.4207
 3.53625  34.2456
 3.61675  33.228
 3.69725  33.5366
 3.77775  33.3255
 3.85825  32.8956
 3.93875  32.8942
 4.01925  32.5386
 4.09975  32.5027
 4.18025  32.5768
 4.26075  32.8295
 4.34125  32.5497
 4.42175  32.3826
 4.50225  33.2812
 4.58275  32.7809
 4.66325  33.0369
 4.74375  32.9377
 4.82425  32.3806
 4.90475  32.7941
 4.98525  33.3549
 5.06575  33.3802
 5.14625  33.5108
 5.22675  34.0512
 5.30725  34.1892
 5.38775  34.8058
 5.46825  34.541
 5.54875  34.8589
 5.62925  35.041
 5.70975  35.3982
 5.79025  35.6097
 5.87075  35.7441
 5.95125  37.7967
 6.03175  37.6299
 6.11225  36.6189
 6.19275  36.8942
 6.27325  37.6588
 6.35375  38.2129
 6.43425  38.3555
 6.51475  38.8507
 6.59525  39.7263
 6.67575  40.3716
 6.75625  40.8868
 6.83675  41.2873
 6.91725  42.0575
 6.99775  42.1081
 7.07825  42.633
 7.15875  43.0424
 7.23925  43.4987
 7.31975  43.7162
 7.40025  43.9635
 7.48075  44.3159
 7.56125  44.175
 7.64175  44.1309
 7.72225  43.9103
 7.80275  43.9387
 7.88325  44.1457
 7.96375  43.3671
 8.04425  43.5015
 8.12475  42.6323
 8.20525  41.8951
 8.28575  40.7771
 8.36625  39.6741
 8.44675  38.7924
 8.52725  37.3408
 8.60775  36.2967
 8.68825  35.1287
 8.76875  33.7709
 8.84925  32.6823
 8.92975  31.5966
 9.01025  30.4603
 9.09075  29.5715
 9.17125  28.9474
 9.25175  27.9228
 9.33225  27.5939
 9.41275  26.9231
 9.49325  26.4141
 9.57375  25.8725
 9.65425  25.3575
 9.73475  25.0199
 9.81525  24.7828
 9.89575  24.3735
 9.97625  24.2116
 10.0567  23.9259
 10.1373  23.9034
 10.2178  23.5652
 10.2982  23.4235
 10.3788  23.3085
 10.4593  23.0067
 10.5397  23.0512
 10.6203  22.7414
 10.7007  22.7453
 10.7813  22.669
 10.8618  22.7439
 10.9422  22.4981
 11.0228  22.5979
 11.1033  22.4514
 11.1837  22.4125
 11.2643  22.4103
 11.3447  22.2975
 11.4253  22.6362
 11.5058  22.2666
 11.5862  24.0081
 11.6668  22.6914
 11.7473  22.3152
 11.8277  22.1979
 11.9083  22.1345
 11.9887  22.5273
 12.0693  22.6586
 12.1498  22.7665
 12.2302  22.2783
 12.3108  22.4428
 12.3913  22.4179
 12.4718  22.4389
 12.5523  22.5593
 12.6328  22.6786
 12.7133  22.6273
 12.7938  22.7279
 12.8742  23.096
 12.9548  23.4685
 13.0353  23.9054
 13.1158  24.4946
 13.1963  25.4461
 13.2768  26.4114
 13.3573  27.3504
 13.4378  28.3622
 13.5183  29.1674
 13.5988  29.3922
 13.6793  29.4515
 13.7598  29.0824
 13.8403  28.6531
 13.9208  29.5042
 14.0013  29.1029
 14.0818  27.3059
 14.1623  26.8291
 14.2428  26.1977
 14.3233  26.1274
 14.4038  25.8131
 14.4843  25.5779
 14.5648  25.4277
 14.6453  25.2277
 14.7258  24.9882
 14.8063  24.8722
 14.8868  24.8114
 14.9673  24.5971
 15.0478  24.6098
 15.1283  24.648
 15.2088  25.1863
 15.2892  24.555
 15.3698  24.3692
 15.4503  24.3332
 15.5308  24.4932
 15.6113  24.2767
 15.6918  24.3935
 15.7723  24.4057
 15.8528  24.2629
 15.9332  24.4541
 16.0138  24.522
 16.0943  24.419
 16.1748  24.5248
 16.2553  24.992
 16.3358  24.7302
 16.4163  24.5425
 16.4967  24.4796
 16.5773  24.4967
 16.6578  24.2283
 16.7383  24.2523
 16.8188  24.177
 16.8992  24.166
 16.9798  24.1101
 17.0603  24.0635
 17.1408  24.0293
 17.2213  23.9332
 17.3017  23.9281
 17.3823  23.7828
 17.4628  23.721
 17.5433  23.6324
 17.6238  23.6404
 17.7042  23.5508
 17.7847  23.54
 17.8653  23.4006
 17.9458  23.4797
 18.0263  23.7217
 18.1068  23.5997
 18.1872  23.3358
 18.2678  23.3894
 18.3483  23.3322
 18.4288  23.3653
 18.5093  23.3646
 18.5897  23.252
 18.6703  23.2007
 18.7508  23.1339
 18.8313  23.1974
 18.9118  23.2178
 18.9922  23.1666
 19.0727  23.4092
 19.1533  23.3474
 19.2338  23.4142
 19.3143  23.3171
 19.3948  23.3155
 19.4752  23.3546
 19.5558  23.3625
 19.6363  23.4536
 19.7168  23.8556
 19.7973  23.6364
 19.8777  24.019
 19.9582  23.4454
 20.0388  23.3259
 20.1193  23.4856
 20.1998  23.4424
 20.2803  23.4471
 20.3607  23.4
 20.4413  23.3613
 20.5218  23.4548
 20.6023  23.5307
 20.6828  23.6004
 20.7632  24.0358
 20.8438  23.655
 20.9243  23.5496
 21.0048  23.5974
 21.0853  23.5538
 21.1658  23.5051
 21.2462  23.6212
 21.3268  23.6599
 21.4073  23.6524
 21.4878  23.6627
 21.5683  23.7333
 21.6487  23.775
 21.7293  23.8261
 21.8098  23.9496
 21.8903  23.8184
 21.9708  23.9392
 22.0512  24.0954
 22.1318  24.0879
 22.2123  24.0998
 22.2928  24.2243
 22.3733  24.3579
 22.4538  24.4191
 22.5343  24.4941
 22.6148  24.6029
 22.6953  24.774
 22.7758  24.9436
 22.8563  25.1957
 22.9367  25.5821
 22.9943  25.9658