File: test-data-xrd/xrd-map-34-ID-E/Data_0028.chi
F:\20151113_APS_34IDE\\Brian\Particle1\OCV\Data_0028.tif
2-Theta Angle (Degrees)
Intensity
       2000
 0.07475  0.0000000E+00
 0.15525  0.0000000E+00
 0.23575  0.0000000E+00
 0.31625  0.0000000E+00
 0.39675  0.0000000E+00
 0.47725  0.0000000E+00
 0.55775  0.0000000E+00
 0.63825  0.0000000E+00
 0.71875  0.0000000E+00
 0.79925  0.0000000E+00
 0.87975  0.0000000E+00
 0.96025  0.0000000E+00
 1.04075  0.0000000E+00
 1.12125  0.0000000E+00
 1.20175  0.0000000E+00
 1.28225  0.0000000E+00
 1.36275  0.0000000E+00
 1.44325  0.0000000E+00
 1.52375  0.0000000E+00
 1.60425  0.0000000E+00
 1.68475  0.0000000E+00
 1.76525  0.0000000E+00
 1.84575  0.0000000E+00
 1.92625  0.0000000E+00
 2.00675  0.0000000E+00
 2.08725  0.0000000E+00
 2.16775  0.0000000E+00
 2.24825  0.0000000E+00
 2.32875  0.0000000E+00
 2.40925  0.0000000E+00
 2.48975  0.0000000E+00
 2.57025  0.0000000E+00
 2.65075  0.0000000E+00
 2.73125  0.0000000E+00
 2.81175  0.0000000E+00
 2.89225  34.2636
 2.97275  35.9805
 3.05325  35.84
 3.13375  34.8337
 3.21425  36.0765
 3.29475  34.7032
 3.37525  34.2023
 3.45575  34.1201
 3.53625  33.4787
 3.61675  34.0551
 3.69725  33.6974
 3.77775  33.1832
 3.85825  33.2129
 3.93875  32.7599
 4.01925  33.3946
 4.09975  32.825
 4.18025  32.4259
 4.26075  32.4392
 4.34125  32.5918
 4.42175  32.9675
 4.50225  33.117
 4.58275  32.8432
 4.66325  33.0133
 4.74375  32.913
 4.82425  32.9357
 4.90475  32.9845
 4.98525  33.4587
 5.06575  33.4751
 5.14625  33.8178
 5.22675  34.2236
 5.30725  34.5689
 5.38775  35.0841
 5.46825  35.0229
 5.54875  35.3247
 5.62925  35.5848
 5.70975  35.9733
 5.79025  36.3975
 5.87075  37.1743
 5.95125  47.2974
 6.03175  46.0277
 6.11225  37.9071
 6.19275  37.6824
 6.27325  37.9598
 6.35375  38.5957
 6.43425  39.0181
 6.51475  39.5675
 6.59525  39.7201
 6.67575  40.5566
 6.75625  41.2015
 6.83675  41.7272
 6.91725  42.0922
 6.99775  42.7554
 7.07825  43.4938
 7.15875  43.9349
 7.23925  44.0705
 7.31975  44.1722
 7.40025  44.2775
 7.48075  44.9169
 7.56125  44.6841
 7.64175  44.9959
 7.72225  44.9769
 7.80275  44.9841
 7.88325  44.6768
 7.96375  44.2283
 8.04425  43.7391
 8.12475  43.0405
 8.20525  42.3716
 8.28575  41.4056
 8.36625  40.2431
 8.44675  39.0821
 8.52725  37.9837
 8.60775  36.7054
 8.68825  35.4063
 8.76875  34.127
 8.84925  33.2771
 8.92975  32.0352
 9.01025  31.079
 9.09075  30.0741
 9.17125  29.4471
 9.25175  28.7202
 9.33225  27.8474
 9.41275  27.3286
 9.49325  26.8802
 9.57375  26.2363
 9.65425  25.7928
 9.73475  25.4453
 9.81525  25.2484
 9.89575  24.8914
 9.97625  24.7274
 10.0567  24.5004
 10.1373  24.2396
 10.2178  24.0927
 10.2982  23.7391
 10.3788  23.4991
 10.4593  23.5975
 10.5397  23.4807
 10.6203  23.1149
 10.7007  23.1737
 10.7813  23.1686
 10.8618  23.1287
 10.9422  22.8953
 11.0228  22.8659
 11.1033  22.8634
 11.1837  22.8215
 11.2643  22.7198
 11.3447  22.7637
 11.4253  23.2047
 11.5058  23.3459
 11.5862  30.0114
 11.6668  23.9311
 11.7473  22.9255
 11.8277  22.7813
 11.9083  22.9233
 11.9887  24.3088
 12.0693  24.316
 12.1498  24.8689
 12.2302  22.8625
 12.3108  22.9508
 12.3913  22.9174
 12.4718  22.8968
 12.5523  22.9607
 12.6328  23.0906
 12.7133  23.169
 12.7938  23.4167
 12.8742  23.6776
 12.9548  23.9646
 13.0353  24.4543
 13.1158  24.9726
 13.1963  25.9812
 13.2768  26.9329
 13.3573  27.924
 13.4378  28.9367
 13.5183  29.8554
 13.5988  30.1899
 13.6793  30.1876
 13.7598  30.0781
 13.8403  30.3444
 13.9208  41.3803
 14.0013  40.0629
 14.0818  28.5797
 14.1623  27.5916
 14.2428  26.9525
 14.3233  26.6641
 14.4038  26.2938
 14.4843  26.0289
 14.5648  25.833
 14.6453  25.6764
 14.7258  25.5543
 14.8063  25.3357
 14.8868  25.2917
 14.9673  25.1394
 15.0478  25.249
 15.1283  25.8876
 15.2088  27.4086
 15.2892  25.0238
 15.3698  24.8539
 15.4503  24.8026
 15.5308  24.6889
 15.6113  24.7904
 15.6918  24.7842
 15.7723  24.8399
 15.8528  24.7966
 15.9332  24.7719
 16.0138  24.764
 16.0943  24.8832
 16.1748  25.0617
 16.2553  25.9438
 16.3358  25.1746
 16.4163  24.9422
 16.4967  24.9686
 16.5773  24.8236
 16.6578  24.8437
 16.7383  24.7591
 16.8188  24.6312
 16.8992  24.6271
 16.9798  24.5255
 17.0603  24.3637
 17.1408  24.5143
 17.2213  24.5837
 17.3017  24.2958
 17.3823  24.3155
 17.4628  24.1006
 17.5433  24.2076
 17.6238  24.0827
 17.7042  24.1294
 17.7847  24.1382
 17.8653  24.1387
 17.9458  24.2099
 18.0263  25.1921
 18.1068  28.2494
 18.1872  24.8696
 18.2678  24.0486
 18.3483  23.8139
 18.4288  23.9153
 18.5093  23.8131
 18.5897  23.5937
 18.6703  23.6956
 18.7508  23.7112
 18.8313  23.6779
 18.9118  23.6969
 18.9922  23.7531
 19.0727  23.9361
 19.1533  23.752
 19.2338  23.7816
 19.3143  23.7581
 19.3948  23.8991
 19.4752  24.003
 19.5558  23.9474
 19.6363  24.8139
 19.7168  29.3257
 19.7973  25.8519
 19.8777  27.0318
 19.9582  24.272
 20.0388  23.9567
 20.1193  24.0247
 20.1998  24.024
 20.2803  24.016
 20.3607  24.0381
 20.4413  24.0483
 20.5218  23.9752
 20.6023  24.2281
 20.6828  24.6967
 20.7632  28.9676
 20.8438  24.8638
 20.9243  24.2688
 21.0048  24.1243
 21.0853  24.0765
 21.1658  24.2912
 21.2462  24.146
 21.3268  24.1034
 21.4073  24.0828
 21.4878  24.1925
 21.5683  24.211
 21.6487  24.3266
 21.7293  24.4194
 21.8098  24.5308
 21.8903  24.3723
 21.9708  24.4983
 22.0512  24.4262
 22.1318  24.5826
 22.2123  24.5262
 22.2928  24.5772
 22.3733  24.7734
 22.4538  24.7533
 22.5343  24.9097
 22.6148  24.9865
 22.6953  25.2845
 22.7758  25.4402
 22.8563  25.7242
 22.9367  26.1905
 22.9943  26.5469