File: test-data-xrd/xrd-map-34-ID-E/Data_0131.chi
F:\20151113_APS_34IDE\\Brian\Particle1\OCV\Data_0131.tif
2-Theta Angle (Degrees)
Intensity
       2000
 0.07475  0.0000000E+00
 0.15525  0.0000000E+00
 0.23575  0.0000000E+00
 0.31625  0.0000000E+00
 0.39675  0.0000000E+00
 0.47725  0.0000000E+00
 0.55775  0.0000000E+00
 0.63825  0.0000000E+00
 0.71875  0.0000000E+00
 0.79925  0.0000000E+00
 0.87975  0.0000000E+00
 0.96025  0.0000000E+00
 1.04075  0.0000000E+00
 1.12125  0.0000000E+00
 1.20175  0.0000000E+00
 1.28225  0.0000000E+00
 1.36275  0.0000000E+00
 1.44325  0.0000000E+00
 1.52375  0.0000000E+00
 1.60425  0.0000000E+00
 1.68475  0.0000000E+00
 1.76525  0.0000000E+00
 1.84575  0.0000000E+00
 1.92625  0.0000000E+00
 2.00675  0.0000000E+00
 2.08725  0.0000000E+00
 2.16775  0.0000000E+00
 2.24825  0.0000000E+00
 2.32875  0.0000000E+00
 2.40925  0.0000000E+00
 2.48975  0.0000000E+00
 2.57025  0.0000000E+00
 2.65075  0.0000000E+00
 2.73125  0.0000000E+00
 2.81175  0.0000000E+00
 2.89225  34.6601
 2.97275  35.7183
 3.05325  36.0152
 3.13375  35.5237
 3.21425  34.1709
 3.29475  35.3103
 3.37525  34.8226
 3.45575  34.1062
 3.53625  33.9789
 3.61675  33.8677
 3.69725  33.1064
 3.77775  33.137
 3.85825  32.4832
 3.93875  32.8452
 4.01925  32.5927
 4.09975  32.2818
 4.18025  32.5874
 4.26075  32.3062
 4.34125  32.5059
 4.42175  32.6181
 4.50225  32.6579
 4.58275  32.5634
 4.66325  33.0493
 4.74375  32.7486
 4.82425  32.5485
 4.90475  32.6767
 4.98525  33.0208
 5.06575  33.4448
 5.14625  33.4321
 5.22675  33.98
 5.30725  34.0111
 5.38775  34.3754
 5.46825  34.5662
 5.54875  34.724
 5.62925  35.3519
 5.70975  35.157
 5.79025  35.539
 5.87075  35.4346
 5.95125  36.1552
 6.03175  36.489
 6.11225  36.5637
 6.19275  36.7732
 6.27325  37.3302
 6.35375  38.0831
 6.43425  38.8034
 6.51475  39.0783
 6.59525  39.5607
 6.67575  40.3428
 6.75625  40.7109
 6.83675  41.2949
 6.91725  41.8825
 6.99775  41.9896
 7.07825  42.5887
 7.15875  43.2449
 7.23925  43.6209
 7.31975  43.9507
 7.40025  44.1868
 7.48075  44.1254
 7.56125  44.0817
 7.64175  44.2993
 7.72225  44.3179
 7.80275  44.188
 7.88325  44.0309
 7.96375  43.6145
 8.04425  43.286
 8.12475  42.7931
 8.20525  41.9929
 8.28575  40.8494
 8.36625  39.9735
 8.44675  38.6957
 8.52725  37.5276
 8.60775  36.1782
 8.68825  35.2753
 8.76875  33.7943
 8.84925  32.8558
 8.92975  31.6247
 9.01025  30.6407
 9.09075  29.8256
 9.17125  28.8375
 9.25175  28.0815
 9.33225  27.465
 9.41275  26.873
 9.49325  26.4985
 9.57375  25.95
 9.65425  25.4251
 9.73475  25.1033
 9.81525  24.8637
 9.89575  24.4708
 9.97625  24.0646
 10.0567  24.2083
 10.1373  23.8105
 10.2178  23.7649
 10.2982  23.3666
 10.3788  23.15
 10.4593  23.1861
 10.5397  23.0625
 10.6203  22.7811
 10.7007  22.6859
 10.7813  22.6176
 10.8618  22.5566
 10.9422  22.4339
 11.0228  22.3429
 11.1033  22.2693
 11.1837  22.1756
 11.2643  22.1948
 11.3447  22.1447
 11.4253  22.4469
 11.5058  22.2607
 11.5862  22.7631
 11.6668  22.3177
 11.7473  22.0518
 11.8277  22.3088
 11.9083  22.2408
 11.9887  22.2944
 12.0693  22.2453
 12.1498  22.3383
 12.2302  22.3154
 12.3108  22.351
 12.3913  22.4102
 12.4718  22.4433
 12.5523  22.5648
 12.6328  22.6563
 12.7133  22.7453
 12.7938  22.9796
 12.8742  23.2417
 12.9548  23.5813
 13.0353  24.0088
 13.1158  24.7337
 13.1963  25.493
 13.2768  26.5788
 13.3573  27.4722
 13.4378  28.2353
 13.5183  29.098
 13.5988  29.5983
 13.6793  29.3551
 13.7598  29.1544
 13.8403  28.6546
 13.9208  28.616
 14.0013  27.9349
 14.0818  27.2215
 14.1623  26.5852
 14.2428  26.2093
 14.3233  26.0986
 14.4038  25.8295
 14.4843  25.3909
 14.5648  25.4612
 14.6453  25.2183
 14.7258  25.0583
 14.8063  24.7562
 14.8868  24.7457
 14.9673  24.5238
 15.0478  24.722
 15.1283  24.4472
 15.2088  24.5944
 15.2892  24.4292
 15.3698  24.4767
 15.4503  24.2668
 15.5308  24.4422
 15.6113  24.4379
 15.6918  24.4832
 15.7723  24.3759
 15.8528  24.4654
 15.9332  24.5292
 16.0138  24.5247
 16.0943  24.6927
 16.1748  24.6691
 16.2553  24.9667
 16.3358  24.7391
 16.4163  24.5622
 16.4967  24.38
 16.5773  24.2801
 16.6578  24.2745
 16.7383  24.2539
 16.8188  24.3506
 16.8992  24.1213
 16.9798  24.3294
 17.0603  24.0027
 17.1408  24.0403
 17.2213  23.9228
 17.3017  23.8263
 17.3823  23.9356
 17.4628  23.6981
 17.5433  23.6954
 17.6238  23.6791
 17.7042  23.5168
 17.7847  23.6636
 17.8653  23.5367
 17.9458  23.5219
 18.0263  23.5179
 18.1068  23.5486
 18.1872  23.3785
 18.2678  23.3298
 18.3483  23.3353
 18.4288  23.3554
 18.5093  23.2264
 18.5897  23.3653
 18.6703  23.1876
 18.7508  23.2087
 18.8313  23.17
 18.9118  23.1491
 18.9922  23.1542
 19.0727  23.3721
 19.1533  23.3181
 19.2338  23.2802
 19.3143  23.2557
 19.3948  23.3147
 19.4752  23.3419
 19.5558  23.4917
 19.6363  23.3679
 19.7168  23.6326
 19.7973  23.6083
 19.8777  23.5865
 19.9582  23.2886
 20.0388  23.3715
 20.1193  23.4878
 20.1998  23.3759
 20.2803  23.4149
 20.3607  23.3884
 20.4413  23.5052
 20.5218  23.4079
 20.6023  23.5372
 20.6828  23.428
 20.7632  23.7537
 20.8438  23.5812
 20.9243  23.6569
 21.0048  23.6036
 21.0853  23.5346
 21.1658  23.4882
 21.2462  23.7041
 21.3268  23.6726
 21.4073  23.6299
 21.4878  23.7375
 21.5683  23.7302
 21.6487  24.1385
 21.7293  24.0577
 21.8098  24.0722
 21.8903  24.0537
 21.9708  23.9367
 22.0512  24.1416
 22.1318  24.2021
 22.2123  24.2497
 22.2928  24.1834
 22.3733  24.2274
 22.4538  24.4358
 22.5343  24.4929
 22.6148  24.6706
 22.6953  24.9089
 22.7758  24.9572
 22.8563  25.2812
 22.9367  25.7357
 22.9943  25.9018