File: test-data-xrd/xrd-map-34-ID-E/Data_0005.chi
F:\20151113_APS_34IDE\\Brian\Particle1\OCV\Data_0005.tif
2-Theta Angle (Degrees)
Intensity
       2000
 0.07475  0.0000000E+00
 0.15525  0.0000000E+00
 0.23575  0.0000000E+00
 0.31625  0.0000000E+00
 0.39675  0.0000000E+00
 0.47725  0.0000000E+00
 0.55775  0.0000000E+00
 0.63825  0.0000000E+00
 0.71875  0.0000000E+00
 0.79925  0.0000000E+00
 0.87975  0.0000000E+00
 0.96025  0.0000000E+00
 1.04075  0.0000000E+00
 1.12125  0.0000000E+00
 1.20175  0.0000000E+00
 1.28225  0.0000000E+00
 1.36275  0.0000000E+00
 1.44325  0.0000000E+00
 1.52375  0.0000000E+00
 1.60425  0.0000000E+00
 1.68475  0.0000000E+00
 1.76525  0.0000000E+00
 1.84575  0.0000000E+00
 1.92625  0.0000000E+00
 2.00675  0.0000000E+00
 2.08725  0.0000000E+00
 2.16775  0.0000000E+00
 2.24825  0.0000000E+00
 2.32875  0.0000000E+00
 2.40925  0.0000000E+00
 2.48975  0.0000000E+00
 2.57025  0.0000000E+00
 2.65075  0.0000000E+00
 2.73125  0.0000000E+00
 2.81175  0.0000000E+00
 2.89225  34.2409
 2.97275  35.5242
 3.05325  35.5195
 3.13375  35.3779
 3.21425  35.157
 3.29475  35.0962
 3.37525  34.4357
 3.45575  34.6314
 3.53625  33.6455
 3.61675  33.1747
 3.69725  33.3598
 3.77775  33.2422
 3.85825  33.1079
 3.93875  32.9484
 4.01925  32.6962
 4.09975  32.4812
 4.18025  32.7423
 4.26075  32.4063
 4.34125  32.9293
 4.42175  32.764
 4.50225  32.5646
 4.58275  32.4104
 4.66325  33.0766
 4.74375  32.647
 4.82425  32.7202
 4.90475  33.0821
 4.98525  32.8852
 5.06575  33.0776
 5.14625  33.9662
 5.22675  34.008
 5.30725  34.1406
 5.38775  34.4499
 5.46825  34.626
 5.54875  35.2818
 5.62925  35.2835
 5.70975  35.67
 5.79025  35.925
 5.87075  36.4172
 5.95125  40.1059
 6.03175  39.6147
 6.11225  36.8285
 6.19275  37.245
 6.27325  37.8031
 6.35375  38.2331
 6.43425  38.7246
 6.51475  39.3266
 6.59525  39.5918
 6.67575  40.3982
 6.75625  41.2741
 6.83675  41.742
 6.91725  41.987
 6.99775  42.5028
 7.07825  43.2247
 7.15875  43.2548
 7.23925  44.0263
 7.31975  44.0267
 7.40025  44.3895
 7.48075  44.4562
 7.56125  44.8481
 7.64175  44.9639
 7.72225  44.9131
 7.80275  44.7066
 7.88325  44.4863
 7.96375  43.9156
 8.04425  43.7019
 8.12475  43.2225
 8.20525  42.2847
 8.28575  41.5495
 8.36625  40.7047
 8.44675  39.2216
 8.52725  38.1809
 8.60775  36.9088
 8.68825  35.891
 8.76875  34.5277
 8.84925  33.2194
 8.92975  32.2839
 9.01025  31.1909
 9.09075  30.5358
 9.17125  29.3059
 9.25175  28.5882
 9.33225  28.0183
 9.41275  27.4731
 9.49325  27.073
 9.57375  26.3087
 9.65425  25.9942
 9.73475  25.5654
 9.81525  25.4148
 9.89575  24.9535
 9.97625  24.7203
 10.0567  24.4705
 10.1373  24.3668
 10.2178  24.1785
 10.2982  23.9834
 10.3788  23.6077
 10.4593  23.531
 10.5397  23.4401
 10.6203  23.2661
 10.7007  23.1991
 10.7813  23.0928
 10.8618  23.0329
 10.9422  22.9593
 11.0228  22.9417
 11.1033  22.9335
 11.1837  22.7357
 11.2643  22.5122
 11.3447  22.4694
 11.4253  23.0643
 11.5058  23.1686
 11.5862  27.91
 11.6668  23.3097
 11.7473  22.8052
 11.8277  22.7701
 11.9083  22.8412
 11.9887  23.4464
 12.0693  23.8709
 12.1498  23.6331
 12.2302  22.7309
 12.3108  22.7107
 12.3913  22.7239
 12.4718  22.7901
 12.5523  22.9938
 12.6328  23.1065
 12.7133  23.1688
 12.7938  23.5237
 12.8742  23.5451
 12.9548  23.9456
 13.0353  24.4009
 13.1158  25.249
 13.1963  25.9985
 13.2768  26.9133
 13.3573  27.984
 13.4378  28.7573
 13.5183  29.6317
 13.5988  29.9134
 13.6793  29.8949
 13.7598  29.6141
 13.8403  29.4195
 13.9208  31.3174
 14.0013  30.411
 14.0818  27.9127
 14.1623  27.1984
 14.2428  26.7737
 14.3233  26.2387
 14.4038  26.0936
 14.4843  26.009
 14.5648  25.7174
 14.6453  25.525
 14.7258  25.4136
 14.8063  25.1468
 14.8868  25.169
 14.9673  25.0918
 15.0478  24.8816
 15.1283  25.0434
 15.2088  25.6505
 15.2892  24.813
 15.3698  24.649
 15.4503  24.856
 15.5308  24.587
 15.6113  24.7154
 15.6918  24.856
 15.7723  24.6675
 15.8528  24.8179
 15.9332  24.8011
 16.0138  24.8193
 16.0943  24.8654
 16.1748  25.0289
 16.2553  26.4019
 16.3358  25.4084
 16.4163  25.0318
 16.4967  24.8537
 16.5773  24.7715
 16.6578  24.8098
 16.7383  24.6736
 16.8188  24.639
 16.8992  24.6884
 16.9798  24.4456
 17.0603  24.3516
 17.1408  24.426
 17.2213  24.5033
 17.3017  24.2679
 17.3823  24.2204
 17.4628  24.2138
 17.5433  24.1488
 17.6238  24.0413
 17.7042  24.1339
 17.7847  23.9521
 17.8653  24.0276
 17.9458  24.0149
 18.0263  24.4801
 18.1068  25.2446
 18.1872  23.9384
 18.2678  23.7381
 18.3483  23.7142
 18.4288  23.7864
 18.5093  23.699
 18.5897  23.7127
 18.6703  23.6044
 18.7508  23.6053
 18.8313  23.5997
 18.9118  23.6719
 18.9922  23.5386
 19.0727  23.6262
 19.1533  23.7287
 19.2338  23.7503
 19.3143  23.6965
 19.3948  23.7541
 19.4752  23.8355
 19.5558  23.822
 19.6363  23.9105
 19.7168  25.3094
 19.7973  24.8158
 19.8777  25.6835
 19.9582  24.0855
 20.0388  23.9139
 20.1193  23.8841
 20.1998  23.8148
 20.2803  23.7642
 20.3607  23.9255
 20.4413  23.9788
 20.5218  23.765
 20.6023  24.0419
 20.6828  24.3706
 20.7632  26.3152
 20.8438  24.3323
 20.9243  24.2554
 21.0048  24.034
 21.0853  24.0084
 21.1658  24.0576
 21.2462  24.0088
 21.3268  24.0047
 21.4073  24.0582
 21.4878  24.0576
 21.5683  24.1435
 21.6487  24.2746
 21.7293  24.3474
 21.8098  24.3507
 21.8903  24.4239
 21.9708  24.4596
 22.0512  24.5137
 22.1318  24.4772
 22.2123  24.4369
 22.2928  24.4854
 22.3733  24.6504
 22.4538  24.7596
 22.5343  25.0228
 22.6148  25.0138
 22.6953  25.2775
 22.7758  25.418
 22.8563  25.5586
 22.9367  26.0271
 22.9943  26.4307