File: test-data-xrd/xrd-map-34-ID-E/Data_0089.chi
F:\20151113_APS_34IDE\\Brian\Particle1\OCV\Data_0089.tif
2-Theta Angle (Degrees)
Intensity
       2000
 0.07475  0.0000000E+00
 0.15525  0.0000000E+00
 0.23575  0.0000000E+00
 0.31625  0.0000000E+00
 0.39675  0.0000000E+00
 0.47725  0.0000000E+00
 0.55775  0.0000000E+00
 0.63825  0.0000000E+00
 0.71875  0.0000000E+00
 0.79925  0.0000000E+00
 0.87975  0.0000000E+00
 0.96025  0.0000000E+00
 1.04075  0.0000000E+00
 1.12125  0.0000000E+00
 1.20175  0.0000000E+00
 1.28225  0.0000000E+00
 1.36275  0.0000000E+00
 1.44325  0.0000000E+00
 1.52375  0.0000000E+00
 1.60425  0.0000000E+00
 1.68475  0.0000000E+00
 1.76525  0.0000000E+00
 1.84575  0.0000000E+00
 1.92625  0.0000000E+00
 2.00675  0.0000000E+00
 2.08725  0.0000000E+00
 2.16775  0.0000000E+00
 2.24825  0.0000000E+00
 2.32875  0.0000000E+00
 2.40925  0.0000000E+00
 2.48975  0.0000000E+00
 2.57025  0.0000000E+00
 2.65075  0.0000000E+00
 2.73125  0.0000000E+00
 2.81175  0.0000000E+00
 2.89225  35.3031
 2.97275  35.184
 3.05325  35.204
 3.13375  34.9318
 3.21425  35.1979
 3.29475  35.7463
 3.37525  34.8146
 3.45575  34.3902
 3.53625  34.5162
 3.61675  33.9221
 3.69725  34.2494
 3.77775  33.9945
 3.85825  33.4762
 3.93875  33.063
 4.01925  32.2604
 4.09975  32.7963
 4.18025  32.997
 4.26075  32.9763
 4.34125  32.3191
 4.42175  32.8382
 4.50225  33.1614
 4.58275  32.9749
 4.66325  33.2248
 4.74375  32.7579
 4.82425  33.0398
 4.90475  33.1847
 4.98525  33.4026
 5.06575  33.8618
 5.14625  34.0055
 5.22675  34.5572
 5.30725  34.7919
 5.38775  35.1304
 5.46825  35.5596
 5.54875  35.6321
 5.62925  36.0211
 5.70975  36.8501
 5.79025  37.7957
 5.87075  40.8685
 5.95125  101.252
 6.03175  98.0429
 6.11225  41.0573
 6.19275  38.9753
 6.27325  38.5265
 6.35375  39.0915
 6.43425  39.1731
 6.51475  40.0822
 6.59525  40.0314
 6.67575  40.8154
 6.75625  41.3814
 6.83675  41.9695
 6.91725  42.4338
 6.99775  42.7598
 7.07825  43.1191
 7.15875  43.8938
 7.23925  43.984
 7.31975  44.1953
 7.40025  44.9062
 7.48075  44.7265
 7.56125  44.7835
 7.64175  45.0126
 7.72225  44.7559
 7.80275  44.9189
 7.88325  44.6366
 7.96375  44.3552
 8.04425  43.8617
 8.12475  43.1939
 8.20525  42.3304
 8.28575  41.5494
 8.36625  40.4409
 8.44675  39.2959
 8.52725  38.1524
 8.60775  37.0671
 8.68825  35.5442
 8.76875  34.2349
 8.84925  33.3701
 8.92975  32.3201
 9.01025  30.881
 9.09075  30.2428
 9.17125  29.2405
 9.25175  28.3353
 9.33225  27.8644
 9.41275  27.444
 9.49325  26.7811
 9.57375  26.2191
 9.65425  25.8495
 9.73475  25.3476
 9.81525  25.0189
 9.89575  24.8305
 9.97625  24.7323
 10.0567  24.3723
 10.1373  24.1917
 10.2178  24.0747
 10.2982  23.7164
 10.3788  23.5187
 10.4593  23.4848
 10.5397  23.364
 10.6203  23.2112
 10.7007  23.2852
 10.7813  22.9719
 10.8618  22.9163
 10.9422  22.9558
 11.0228  22.8618
 11.1033  22.8882
 11.1837  22.7459
 11.2643  22.692
 11.3447  22.68
 11.4253  23.0974
 11.5058  23.333
 11.5862  33.008
 11.6668  24.5138
 11.7473  23.2433
 11.8277  22.8718
 11.9083  22.8023
 11.9887  23.8289
 12.0693  24.0903
 12.1498  24.175
 12.2302  22.8213
 12.3108  22.6501
 12.3913  22.7623
 12.4718  22.891
 12.5523  22.861
 12.6328  23.0003
 12.7133  23.2471
 12.7938  23.3064
 12.8742  23.5064
 12.9548  24.0062
 13.0353  24.5144
 13.1158  24.9373
 13.1963  25.7808
 13.2768  26.8315
 13.3573  28.1166
 13.4378  28.8252
 13.5183  29.4747
 13.5988  30.0633
 13.6793  30.1611
 13.7598  29.6815
 13.8403  29.613
 13.9208  32.3876
 14.0013  31.474
 14.0818  28.2192
 14.1623  27.3529
 14.2428  26.7773
 14.3233  26.4442
 14.4038  26.2584
 14.4843  25.9983
 14.5648  25.8249
 14.6453  25.5072
 14.7258  25.367
 14.8063  25.3251
 14.8868  25.2576
 14.9673  25.1836
 15.0478  25.0596
 15.1283  25.8153
 15.2088  29.3426
 15.2892  25.3485
 15.3698  24.9016
 15.4503  24.8138
 15.5308  24.7934
 15.6113  24.6386
 15.6918  24.7758
 15.7723  24.8256
 15.8528  24.8945
 15.9332  24.8642
 16.0138  24.8666
 16.0943  24.8489
 16.1748  25.3456
 16.2553  28.8496
 16.3358  25.4041
 16.4163  25.0065
 16.4967  24.855
 16.5773  24.9167
 16.6578  24.8805
 16.7383  24.626
 16.8188  24.6275
 16.8992  24.5398
 16.9798  24.6206
 17.0603  24.4111
 17.1408  24.4636
 17.2213  24.4459
 17.3017  24.3705
 17.3823  24.2122
 17.4628  24.2315
 17.5433  24.1404
 17.6238  24.064
 17.7042  24.0681
 17.7847  23.9813
 17.8653  24.0568
 17.9458  24.26
 18.0263  24.9335
 18.1068  27.4707
 18.1872  24.8674
 18.2678  23.8847
 18.3483  23.8977
 18.4288  23.8208
 18.5093  23.7052
 18.5897  23.6951
 18.6703  23.6209
 18.7508  23.7066
 18.8313  23.6311
 18.9118  23.6946
 18.9922  23.7379
 19.0727  23.7319
 19.1533  23.6872
 19.2338  23.737
 19.3143  23.7585
 19.3948  23.8589
 19.4752  23.7195
 19.5558  23.9389
 19.6363  24.2309
 19.7168  26.3872
 19.7973  26.2424
 19.8777  29.2179
 19.9582  24.6254
 20.0388  24.0832
 20.1193  23.9889
 20.1998  23.9071
 20.2803  24.062
 20.3607  23.9435
 20.4413  24.0602
 20.5218  24.1175
 20.6023  24.3287
 20.6828  25.0798
 20.7632  31.4996
 20.8438  25.4471
 20.9243  24.3375
 21.0048  24.2542
 21.0853  24.0396
 21.1658  23.9356
 21.2462  24.1399
 21.3268  23.9376
 21.4073  24.1057
 21.4878  24.0573
 21.5683  24.13
 21.6487  24.2774
 21.7293  24.2705
 21.8098  24.2271
 21.8903  24.2368
 21.9708  24.3476
 22.0512  24.3415
 22.1318  24.5296
 22.2123  24.4533
 22.2928  24.7008
 22.3733  24.6996
 22.4538  24.7935
 22.5343  24.9382
 22.6148  24.9744
 22.6953  25.4198
 22.7758  25.5066
 22.8563  25.7452
 22.9367  26.1923
 22.9943  26.5198