File: test-data-xrd/xrd-map-34-ID-E/Data_0048.chi
F:\20151113_APS_34IDE\\Brian\Particle1\OCV\Data_0048.tif
2-Theta Angle (Degrees)
Intensity
       2000
 0.07475  0.0000000E+00
 0.15525  0.0000000E+00
 0.23575  0.0000000E+00
 0.31625  0.0000000E+00
 0.39675  0.0000000E+00
 0.47725  0.0000000E+00
 0.55775  0.0000000E+00
 0.63825  0.0000000E+00
 0.71875  0.0000000E+00
 0.79925  0.0000000E+00
 0.87975  0.0000000E+00
 0.96025  0.0000000E+00
 1.04075  0.0000000E+00
 1.12125  0.0000000E+00
 1.20175  0.0000000E+00
 1.28225  0.0000000E+00
 1.36275  0.0000000E+00
 1.44325  0.0000000E+00
 1.52375  0.0000000E+00
 1.60425  0.0000000E+00
 1.68475  0.0000000E+00
 1.76525  0.0000000E+00
 1.84575  0.0000000E+00
 1.92625  0.0000000E+00
 2.00675  0.0000000E+00
 2.08725  0.0000000E+00
 2.16775  0.0000000E+00
 2.24825  0.0000000E+00
 2.32875  0.0000000E+00
 2.40925  0.0000000E+00
 2.48975  0.0000000E+00
 2.57025  0.0000000E+00
 2.65075  0.0000000E+00
 2.73125  0.0000000E+00
 2.81175  0.0000000E+00
 2.89225  35.1501
 2.97275  35.2664
 3.05325  35.6002
 3.13375  35.2966
 3.21425  35.1116
 3.29475  34.7114
 3.37525  34.7889
 3.45575  33.5819
 3.53625  33.1577
 3.61675  32.2512
 3.69725  32.7598
 3.77775  32.9852
 3.85825  31.9772
 3.93875  32.7075
 4.01925  32.4484
 4.09975  32.2782
 4.18025  32.27
 4.26075  32.0805
 4.34125  31.9281
 4.42175  33.4494
 4.50225  32.5754
 4.58275  32.5578
 4.66325  32.8864
 4.74375  32.3636
 4.82425  32.8326
 4.90475  32.4578
 4.98525  32.4232
 5.06575  33.4411
 5.14625  33.6755
 5.22675  33.8178
 5.30725  34.2887
 5.38775  34.4069
 5.46825  34.9651
 5.54875  34.6481
 5.62925  35.2082
 5.70975  35.3907
 5.79025  35.9654
 5.87075  37.1229
 5.95125  54.6085
 6.03175  50.6697
 6.11225  37.6574
 6.19275  37.3132
 6.27325  37.3249
 6.35375  37.7802
 6.43425  38.0984
 6.51475  39.1064
 6.59525  39.6443
 6.67575  40.16
 6.75625  40.6885
 6.83675  41.5663
 6.91725  41.6277
 6.99775  42.2634
 7.07825  42.7714
 7.15875  43.1301
 7.23925  43.4142
 7.31975  43.7733
 7.40025  45.7719
 7.48075  44.3602
 7.56125  44.3206
 7.64175  44.1677
 7.72225  44.0055
 7.80275  44.0141
 7.88325  43.8123
 7.96375  43.5798
 8.04425  43.3128
 8.12475  42.7636
 8.20525  41.7073
 8.28575  40.9655
 8.36625  39.8982
 8.44675  38.6157
 8.52725  37.5873
 8.60775  36.1851
 8.68825  35.1575
 8.76875  33.6349
 8.84925  32.8729
 8.92975  31.637
 9.01025  30.6968
 9.09075  29.8228
 9.17125  29.1894
 9.25175  28.2746
 9.33225  27.4595
 9.41275  27.0343
 9.49325  26.7544
 9.57375  26.0777
 9.65425  25.902
 9.73475  25.4737
 9.81525  25.0715
 9.89575  24.675
 9.97625  24.3849
 10.0567  24.2001
 10.1373  23.9729
 10.2178  23.9448
 10.2982  23.6283
 10.3788  23.5845
 10.4593  23.2809
 10.5397  23.3529
 10.6203  23.1361
 10.7007  23.0394
 10.7813  22.9578
 10.8618  22.7557
 10.9422  22.7214
 11.0228  22.7262
 11.1033  22.729
 11.1837  22.7742
 11.2643  22.6613
 11.3447  22.8315
 11.4253  23.1612
 11.5058  23.3893
 11.5862  29.1984
 11.6668  23.9286
 11.7473  22.7196
 11.8277  22.6379
 11.9083  22.8628
 11.9887  25.3473
 12.0693  24.5324
 12.1498  25.1
 12.2302  22.8255
 12.3108  22.7682
 12.3913  22.7305
 12.4718  22.7119
 12.5523  22.9284
 12.6328  22.9035
 12.7133  23.0027
 12.7938  23.2893
 12.8742  23.7017
 12.9548  24.1258
 13.0353  24.3661
 13.1158  25.1225
 13.1963  25.8138
 13.2768  26.8254
 13.3573  27.9445
 13.4378  28.6555
 13.5183  29.6037
 13.5988  29.9775
 13.6793  29.9905
 13.7598  30.1083
 13.8403  30.2676
 13.9208  43.9856
 14.0013  43.0495
 14.0818  28.8311
 14.1623  27.5853
 14.2428  26.8831
 14.3233  26.4507
 14.4038  26.2665
 14.4843  25.8211
 14.5648  25.8611
 14.6453  25.517
 14.7258  25.3839
 14.8063  25.1618
 14.8868  25.1924
 14.9673  25.0381
 15.0478  25.0948
 15.1283  26.005
 15.2088  27.954
 15.2892  25.3582
 15.3698  24.9067
 15.4503  24.7133
 15.5308  24.6432
 15.6113  24.5967
 15.6918  24.7325
 15.7723  24.7463
 15.8528  24.8445
 15.9332  24.8259
 16.0138  24.8804
 16.0943  24.9862
 16.1748  25.1939
 16.2553  26.416
 16.3358  25.1153
 16.4163  24.8543
 16.4967  24.7933
 16.5773  24.7898
 16.6578  24.665
 16.7383  24.7537
 16.8188  24.5485
 16.8992  24.5682
 16.9798  24.4326
 17.0603  24.3872
 17.1408  24.3316
 17.2213  24.3534
 17.3017  24.2088
 17.3823  24.2115
 17.4628  24.1661
 17.5433  24.1189
 17.6238  24.2144
 17.7042  24.0484
 17.7847  24.0388
 17.8653  24.1062
 17.9458  24.122
 18.0263  26.1604
 18.1068  29.2366
 18.1872  25.3057
 18.2678  23.989
 18.3483  23.8006
 18.4288  23.8732
 18.5093  23.7678
 18.5897  23.8234
 18.6703  23.7808
 18.7508  23.7861
 18.8313  23.7966
 18.9118  23.5768
 18.9922  23.7506
 19.0727  23.7202
 19.1533  23.9292
 19.2338  23.7684
 19.3143  23.9156
 19.3948  23.9672
 19.4752  24.0874
 19.5558  24.2614
 19.6363  25.6107
 19.7168  37.0329
 19.7973  29.7115
 19.8777  35.959
 19.9582  25.2737
 20.0388  24.3572
 20.1193  24.1982
 20.1998  23.9184
 20.2803  23.9717
 20.3607  24.014
 20.4413  23.9447
 20.5218  23.977
 20.6023  24.0691
 20.6828  24.3593
 20.7632  26.2753
 20.8438  24.5197
 20.9243  24.2136
 21.0048  24.0736
 21.0853  24.1274
 21.1658  24.0123
 21.2462  24.0549
 21.3268  24.0772
 21.4073  24.093
 21.4878  24.2182
 21.5683  24.2351
 21.6487  24.2559
 21.7293  24.4161
 21.8098  24.387
 21.8903  24.3898
 21.9708  24.5173
 22.0512  24.4033
 22.1318  24.529
 22.2123  24.6267
 22.2928  24.636
 22.3733  24.7175
 22.4538  24.8758
 22.5343  24.9968
 22.6148  25.0995
 22.6953  25.3901
 22.7758  25.4186
 22.8563  25.7066
 22.9367  26.256
 22.9943  26.6391